Frequency (Hz)	Level (dB)
0.976562	-46.997063
1.953125	-46.917255
2.929688	-46.224289
3.906250	-47.597652
4.882812	-47.439342
5.859375	-46.002609
6.835938	-46.479027
7.812500	-46.565506
8.789062	-47.419838
9.765625	-46.279568
10.742188	-46.096779
11.718750	-46.986500
12.695312	-46.603268
13.671875	-47.082653
14.648438	-46.987698
15.625000	-47.340260
16.601562	-46.625587
17.578125	-47.368362
18.554688	-47.462086
19.531250	-46.908504
20.507812	-46.961102
21.484375	-46.745399
22.460938	-47.620571
23.437500	-47.107784
24.414062	-47.123775
25.390625	-46.738670
26.367188	-46.949390
27.343750	-47.366833
28.320312	-47.161716
29.296875	-46.981041
30.273438	-47.035099
31.250000	-47.417305
32.226562	-46.644699
33.203125	-47.164890
34.179688	-46.658585
35.156250	-47.081436
36.132812	-47.074158
37.109375	-46.486778
38.085938	-46.721729
39.062500	-47.508003
40.039062	-47.228455
41.015625	-47.409466
41.992188	-47.434631
42.968750	-46.509937
43.945312	-46.498470
44.921875	-47.136421
45.898438	-47.339962
46.875000	-46.225727
47.851562	-47.515812
48.828125	-46.914700
49.804688	-46.490444
50.781250	-47.175568
51.757812	-47.572403
52.734375	-47.038647
53.710938	-47.299725
54.687500	-46.530865
55.664062	-46.407146
56.640625	-46.567753
57.617188	-46.850048
58.593750	-46.996998
59.570312	-48.056038
60.546875	-47.484558
61.523438	-47.264996
62.500000	-47.403503
63.476562	-47.026752
64.453125	-46.794708
65.429688	-47.977573
66.406250	-46.947693
67.382812	-46.402824
68.359375	-46.813808
69.335938	-47.840977
70.312500	-47.163788
71.289062	-47.293034
72.265625	-47.170650
73.242188	-46.745872
74.218750	-46.317009
75.195312	-47.500843
76.171875	-47.193981
77.148438	-47.171589
78.125000	-47.032097
79.101562	-46.584465
80.078125	-46.867214
81.054688	-47.275818
82.031250	-47.585773
83.007812	-46.702599
83.984375	-47.507442
84.960938	-47.560455
85.937500	-46.967628
86.914062	-46.479710
87.890625	-47.370506
88.867188	-46.243145
89.843750	-47.540264
90.820312	-46.496387
91.796875	-47.050972
92.773438	-47.707588
93.750000	-46.475983
94.726562	-46.917294
95.703125	-47.678604
96.679688	-47.075451
97.656250	-46.855865
98.632812	-47.297657
99.609375	-46.578045
100.585938	-47.045856
101.562500	-47.416885
102.539062	-46.835552
103.515625	-47.376041
104.492188	-47.200779
105.468750	-46.452751
106.445312	-46.953442
107.421875	-47.159466
108.398438	-47.160488
109.375000	-47.145393
110.351562	-47.096397
111.328125	-47.487274
112.304688	-46.866592
113.281250	-46.899742
114.257812	-47.257221
115.234375	-47.276394
116.210938	-46.976234
117.187500	-46.658642
118.164062	-46.894329
119.140625	-46.312553
120.117188	-47.035843
121.093750	-47.416756
122.070312	-47.116764
123.046875	-47.345238
124.023438	-46.899769
125.000000	-47.011749
125.976562	-46.132793
126.953125	-46.578262
127.929688	-46.705620
128.906250	-46.584290
129.882812	-46.444214
130.859375	-45.808777
131.835938	-45.957897
132.812500	-47.217926
133.789062	-46.809822
134.765625	-46.213737
135.742188	-46.975487
136.718750	-46.707516
137.695312	-46.745190
138.671875	-46.430649
139.648438	-46.701939
140.625000	-46.663017
141.601562	-46.821426
142.578125	-46.227257
143.554688	-47.175816
144.531250	-46.551582
145.507812	-46.701534
146.484375	-47.014877
147.460938	-46.706085
148.437500	-46.896999
149.414062	-47.498131
150.390625	-46.858295
151.367188	-47.260967
152.343750	-46.721390
153.320312	-45.763557
154.296875	-47.238991
155.273438	-47.016308
156.250000	-46.922630
157.226562	-47.175385
158.203125	-46.862244
159.179688	-47.254490
160.156250	-47.213253
161.132812	-47.405010
162.109375	-46.810837
163.085938	-47.404823
164.062500	-46.421597
165.039062	-46.471130
166.015625	-46.652893
166.992188	-47.491116
167.968750	-47.418308
168.945312	-46.609501
169.921875	-46.954124
170.898438	-47.255207
171.875000	-47.067593
172.851562	-46.294327
173.828125	-46.584637
174.804688	-46.510082
175.781250	-46.843300
176.757812	-46.870926
177.734375	-47.090130
178.710938	-46.742809
179.687500	-47.089134
180.664062	-47.436131
181.640625	-46.408623
182.617188	-46.585869
183.593750	-46.587440
184.570312	-47.502930
185.546875	-46.745373
186.523438	-48.276745
187.500000	-47.350800
188.476562	-46.728745
189.453125	-47.355984
190.429688	-46.627705
191.406250	-47.311104
192.382812	-47.629829
193.359375	-46.395576
194.335938	-46.760571
195.312500	-47.368477
196.289062	-46.781990
197.265625	-47.544014
198.242188	-47.322762
199.218750	-47.195583
200.195312	-47.172821
201.171875	-46.555161
202.148438	-47.324265
203.125000	-46.985332
204.101562	-48.095383
205.078125	-46.865997
206.054688	-46.524551
207.031250	-47.280792
208.007812	-47.209827
208.984375	-47.736950
209.960938	-47.412941
210.937500	-46.928478
211.914062	-47.060585
212.890625	-45.735939
213.867188	-47.224495
214.843750	-46.548340
215.820312	-46.439297
216.796875	-46.689445
217.773438	-47.255150
218.750000	-47.832199
219.726562	-46.973446
220.703125	-46.478081
221.679688	-46.840851
222.656250	-47.114029
223.632812	-47.075146
224.609375	-46.678532
225.585938	-47.500641
226.562500	-47.125713
227.539062	-46.713352
228.515625	-46.207165
229.492188	-47.926304
230.468750	-46.572571
231.445312	-46.734379
232.421875	-46.942322
233.398438	-47.099350
234.375000	-46.513039
235.351562	-46.595509
236.328125	-46.828346
237.304688	-47.073132
238.281250	-46.825756
239.257812	-47.339169
240.234375	-46.447803
241.210938	-48.010612
242.187500	-47.235954
243.164062	-46.934212
244.140625	-47.206913
245.117188	-46.246140
246.093750	-47.142292
247.070312	-46.764557
248.046875	-47.084309
249.023438	-47.343037
250.000000	-46.346088
250.976562	-47.289639
251.953125	-46.867172
252.929688	-46.519199
253.906250	-47.322155
254.882812	-46.968922
255.859375	-47.614178
256.835938	-47.136345
257.812500	-46.823418
258.789062	-46.185600
259.765625	-46.288830
260.742188	-47.298195
261.718750	-46.840858
262.695312	-47.843506
263.671875	-47.029602
264.648438	-46.900627
265.625000	-46.461372
266.601562	-46.950653
267.578125	-47.748730
268.554688	-47.545815
269.531250	-47.103313
270.507812	-46.578140
271.484375	-46.693455
272.460938	-46.815815
273.437500	-46.582958
274.414062	-46.870670
275.390625	-47.173901
276.367188	-47.627174
277.343750	-46.938740
278.320312	-46.991398
279.296875	-46.468044
280.273438	-46.834656
281.250000	-46.852257
282.226562	-46.870979
283.203125	-47.234886
284.179688	-46.908371
285.156250	-46.731209
286.132812	-46.171341
287.109375	-46.672253
288.085938	-47.208065
289.062500	-47.108940
290.039062	-46.623020
291.015625	-47.613983
291.992188	-46.592171
292.968750	-46.340607
293.945312	-47.211185
294.921875	-46.125717
295.898438	-46.718773
296.875000	-46.125889
297.851562	-46.745102
298.828125	-46.443668
299.804688	-46.149189
300.781250	-46.857658
301.757812	-47.067112
302.734375	-47.132156
303.710938	-47.362942
304.687500	-46.348015
305.664062	-47.505821
306.640625	-46.914978
307.617188	-46.698696
308.593750	-46.713028
309.570312	-46.310421
310.546875	-46.586388
311.523438	-45.985622
312.500000	-46.526447
313.476562	-46.841728
314.453125	-47.047924
315.429688	-47.394890
316.406250	-46.461014
317.382812	-46.973095
318.359375	-46.695156
319.335938	-46.945999
320.312500	-46.734203
321.289062	-46.432644
322.265625	-46.368519
323.242188	-46.345726
324.218750	-46.666069
325.195312	-45.918385
326.171875	-46.539871
327.148438	-47.327522
328.125000	-46.762035
329.101562	-47.630856
330.078125	-47.867657
331.054688	-46.820766
332.031250	-47.486240
333.007812	-47.738300
333.984375	-46.845798
334.960938	-46.636593
335.937500	-47.145309
336.914062	-46.933064
337.890625	-46.770496
338.867188	-47.229721
339.843750	-47.017506
340.820312	-47.494774
341.796875	-46.699841
342.773438	-47.421753
343.750000	-47.329567
344.726562	-46.424084
345.703125	-47.091846
346.679688	-46.747623
347.656250	-46.502720
348.632812	-47.078976
349.609375	-46.840961
350.585938	-47.405327
351.562500	-47.469223
352.539062	-47.396381
353.515625	-46.467888
354.492188	-46.695168
355.468750	-47.556808
356.445312	-47.267277
357.421875	-47.467499
358.398438	-47.259636
359.375000	-46.945881
360.351562	-47.035553
361.328125	-46.919800
362.304688	-47.146305
363.281250	-46.666904
364.257812	-47.169399
365.234375	-46.744904
366.210938	-47.287704
367.187500	-46.889610
368.164062	-46.584206
369.140625	-46.723103
370.117188	-46.795364
371.093750	-46.831619
372.070312	-47.199406
373.046875	-46.597919
374.023438	-46.960491
375.000000	-46.988121
375.976562	-47.843781
376.953125	-47.581825
377.929688	-46.777267
378.906250	-47.655678
379.882812	-46.476570
380.859375	-46.805378
381.835938	-46.133884
382.812500	-45.782696
383.789062	-46.713055
384.765625	-46.937351
385.742188	-46.543591
386.718750	-46.439922
387.695312	-47.039436
388.671875	-46.887047
389.648438	-47.522057
390.625000	-46.949959
391.601562	-46.981358
392.578125	-46.116219
393.554688	-46.379715
394.531250	-47.106262
395.507812	-46.863338
396.484375	-46.965221
397.460938	-46.387714
398.437500	-47.255131
399.414062	-47.073498
400.390625	-47.118931
401.367188	-46.743256
402.343750	-47.322292
403.320312	-47.163937
404.296875	-46.776646
405.273438	-46.927174
406.250000	-47.246426
407.226562	-45.765537
408.203125	-46.502457
409.179688	-47.751305
410.156250	-46.875378
411.132812	-47.473015
412.109375	-46.184273
413.085938	-47.442917
414.062500	-46.791355
415.039062	-46.778099
416.015625	-46.877110
416.992188	-47.121830
417.968750	-46.337765
418.945312	-45.904072
419.921875	-46.582897
420.898438	-46.804504
421.875000	-46.627007
422.851562	-46.968468
423.828125	-46.674366
424.804688	-46.077457
425.781250	-47.087795
426.757812	-47.127632
427.734375	-46.823711
428.710938	-46.974167
429.687500	-47.075394
430.664062	-45.808517
431.640625	-46.875656
432.617188	-47.735897
433.593750	-46.880619
434.570312	-46.797436
435.546875	-47.065250
436.523438	-47.066536
437.500000	-46.562737
438.476562	-46.449417
439.453125	-46.969059
440.429688	-47.301857
441.406250	-46.549183
442.382812	-46.512718
443.359375	-46.739906
444.335938	-47.537392
445.312500	-46.700130
446.289062	-47.404331
447.265625	-47.333557
448.242188	-46.490578
449.218750	-46.996521
450.195312	-46.968319
451.171875	-48.024582
452.148438	-46.811359
453.125000	-47.827164
454.101562	-47.840172
455.078125	-47.502125
456.054688	-47.335735
457.031250	-46.416882
458.007812	-46.885303
458.984375	-47.275307
459.960938	-46.843796
460.937500	-47.326637
461.914062	-46.723621
462.890625	-47.036457
463.867188	-47.523151
464.843750	-47.291309
465.820312	-47.169476
466.796875	-47.195011
467.773438	-46.680412
468.750000	-47.178257
469.726562	-47.297512
470.703125	-46.491978
471.679688	-47.388905
472.656250	-47.124718
473.632812	-46.631050
474.609375	-47.405094
475.585938	-47.007374
476.562500	-47.476223
477.539062	-46.465637
478.515625	-46.212360
479.492188	-47.264225
480.468750	-47.027008
481.445312	-46.347569
482.421875	-46.988300
483.398438	-47.071518
484.375000	-46.059361
485.351562	-47.778755
486.328125	-46.964310
487.304688	-46.817074
488.281250	-46.340237
489.257812	-47.109039
490.234375	-46.610481
491.210938	-47.085598
492.187500	-46.659439
493.164062	-46.507385
494.140625	-46.690002
495.117188	-47.010757
496.093750	-47.351738
497.070312	-46.100056
498.046875	-46.135571
499.023438	-46.773865
500.000000	-47.015900
500.976562	-47.057125
501.953125	-47.195885
502.929688	-47.002754
503.906250	-46.522003
504.882812	-47.188858
505.859375	-47.168446
506.835938	-47.506367
507.812500	-47.425549
508.789062	-47.791943
509.765625	-46.639484
510.742188	-47.071251
511.718750	-46.467983
512.695312	-46.476437
513.671875	-47.410515
514.648438	-47.479939
515.625000	-47.020737
516.601562	-46.869835
517.578125	-47.588165
518.554688	-48.043262
519.531250	-47.209427
520.507812	-47.325012
521.484375	-47.207123
522.460938	-47.060493
523.437500	-46.451900
524.414062	-47.235641
525.390625	-47.773552
526.367188	-46.842228
527.343750	-46.685234
528.320312	-46.602158
529.296875	-47.100128
530.273438	-47.032665
531.250000	-45.726452
532.226562	-46.834667
533.203125	-47.502739
534.179688	-48.061554
535.156250	-47.205959
536.132812	-47.092014
537.109375	-46.642681
538.085938	-46.571865
539.062500	-46.869373
540.039062	-46.968075
541.015625	-47.573460
541.992188	-46.557022
542.968750	-46.513264
543.945312	-46.244930
544.921875	-46.484726
545.898438	-47.553562
546.875000	-46.932747
547.851562	-46.746010
548.828125	-46.872620
549.804688	-46.590633
550.781250	-47.666103
551.757812	-47.978954
552.734375	-47.179886
553.710938	-47.458973
554.687500	-47.027943
555.664062	-47.183743
556.640625	-46.417492
557.617188	-47.152813
558.593750	-46.460899
559.570312	-47.034981
560.546875	-46.174313
561.523438	-47.925091
562.500000	-47.357456
563.476562	-47.408092
564.453125	-47.092194
565.429688	-47.808399
566.406250	-47.051720
567.382812	-46.731010
568.359375	-46.751404
569.335938	-47.067028
570.312500	-47.237995
571.289062	-47.330723
572.265625	-47.890705
573.242188	-47.287109
574.218750	-46.843117
575.195312	-46.551880
576.171875	-47.637566
577.148438	-47.124527
578.125000	-46.758938
579.101562	-47.055912
580.078125	-46.880989
581.054688	-46.878590
582.031250	-47.056614
583.007812	-47.672058
583.984375	-47.082142
584.960938	-46.319370
585.937500	-45.706902
586.914062	-46.608284
587.890625	-47.206810
588.867188	-47.042492
589.843750	-47.411381
590.820312	-46.461193
591.796875	-46.103184
592.773438	-46.614792
593.750000	-46.429764
594.726562	-46.922737
595.703125	-47.819420
596.679688	-47.873543
597.656250	-46.532207
598.632812	-46.346714
599.609375	-47.682735
600.585938	-47.352188
601.562500	-47.007793
602.539062	-46.486378
603.515625	-46.612514
604.492188	-47.353203
605.468750	-46.536312
606.445312	-47.336330
607.421875	-47.265244
608.398438	-46.850197
609.375000	-47.399879
610.351562	-47.359524
611.328125	-47.608158
612.304688	-46.729549
613.281250	-47.174641
614.257812	-47.687195
615.234375	-47.611584
616.210938	-46.840614
617.187500	-46.429398
618.164062	-46.455959
619.140625	-48.269241
620.117188	-47.272118
621.093750	-47.123344
622.070312	-47.013474
623.046875	-46.448181
624.023438	-46.568058
625.000000	-47.113682
625.976562	-47.158199
626.953125	-46.889683
627.929688	-46.765278
628.906250	-46.841549
629.882812	-46.987370
630.859375	-47.471642
631.835938	-46.567810
632.812500	-47.387470
633.789062	-46.815907
634.765625	-47.388683
635.742188	-46.986458
636.718750	-47.329468
637.695312	-47.103081
638.671875	-46.744492
639.648438	-47.291229
640.625000	-46.538227
641.601562	-46.668507
642.578125	-47.535717
643.554688	-47.099072
644.531250	-46.528343
645.507812	-46.628773
646.484375	-46.976719
647.460938	-47.094536
648.437500	-46.892632
649.414062	-46.841389
650.390625	-46.821442
651.367188	-46.982883
652.343750	-46.317299
653.320312	-46.974709
654.296875	-46.685650
655.273438	-47.001041
656.250000	-46.794300
657.226562	-47.015774
658.203125	-47.338287
659.179688	-46.974823
660.156250	-47.087444
661.132812	-46.841221
662.109375	-46.739571
663.085938	-46.869511
664.062500	-46.365894
665.039062	-46.817448
666.015625	-47.066269
666.992188	-47.087643
667.968750	-47.292061
668.945312	-47.196014
669.921875	-46.920990
670.898438	-47.040257
671.875000	-47.174850
672.851562	-47.415535
673.828125	-47.370171
674.804688	-47.718887
675.781250	-46.509312
676.757812	-46.466515
677.734375	-46.142994
678.710938	-46.982170
679.687500	-47.172138
680.664062	-47.058163
681.640625	-47.289845
682.617188	-47.659691
683.593750	-46.971172
684.570312	-46.911285
685.546875	-47.413120
686.523438	-46.473568
687.500000	-47.022190
688.476562	-47.130840
689.453125	-46.958759
690.429688	-46.569912
691.406250	-46.299015
692.382812	-46.751457
693.359375	-46.801228
694.335938	-46.944038
695.312500	-46.427586
696.289062	-46.958241
697.265625	-46.697392
698.242188	-46.561050
699.218750	-46.508499
700.195312	-46.570107
701.171875	-46.995586
702.148438	-47.548515
703.125000	-46.916111
704.101562	-47.281590
705.078125	-46.623199
706.054688	-47.080635
707.031250	-47.674343
708.007812	-47.720005
708.984375	-47.294701
709.960938	-47.279991
710.937500	-47.642792
711.914062	-47.596680
712.890625	-47.310020
713.867188	-46.836941
714.843750	-46.529900
715.820312	-46.859669
716.796875	-47.319836
717.773438	-46.813358
718.750000	-46.613247
719.726562	-46.499607
720.703125	-47.177971
721.679688	-47.034218
722.656250	-47.474224
723.632812	-46.638306
724.609375	-47.611130
725.585938	-46.800941
726.562500	-46.222485
727.539062	-46.664829
728.515625	-47.080467
729.492188	-46.838161
730.468750	-47.750824
731.445312	-47.687862
732.421875	-47.748203
733.398438	-47.557552
734.375000	-46.604607
735.351562	-46.778038
736.328125	-46.192310
737.304688	-47.257256
738.281250	-47.028942
739.257812	-46.620914
740.234375	-47.154106
741.210938	-46.887608
742.187500	-46.538597
743.164062	-46.614494
744.140625	-47.246849
745.117188	-46.730961
746.093750	-47.013664
747.070312	-47.188343
748.046875	-47.138916
749.023438	-46.133503
750.000000	-46.932415
750.976562	-47.547138
751.953125	-47.217190
752.929688	-47.477272
753.906250	-46.010727
754.882812	-46.792656
755.859375	-46.695999
756.835938	-46.841045
757.812500	-47.402775
758.789062	-46.566746
759.765625	-46.384880
760.742188	-46.995369
761.718750	-46.590176
762.695312	-46.290607
763.671875	-46.108227
764.648438	-47.296997
765.625000	-47.451542
766.601562	-47.434620
767.578125	-46.605217
768.554688	-47.105927
769.531250	-46.759739
770.507812	-46.607399
771.484375	-46.543556
772.460938	-46.930786
773.437500	-47.517162
774.414062	-47.203026
775.390625	-47.954674
776.367188	-46.759743
777.343750	-46.243435
778.320312	-47.195362
779.296875	-46.813931
780.273438	-46.319256
781.250000	-47.322353
782.226562	-47.069317
783.203125	-46.808117
784.179688	-46.335758
785.156250	-46.521473
786.132812	-46.429466
787.109375	-46.949688
788.085938	-46.422905
789.062500	-46.569099
790.039062	-46.581944
791.015625	-46.463692
791.992188	-47.282734
792.968750	-47.477947
793.945312	-47.440254
794.921875	-47.428173
795.898438	-46.812492
796.875000	-46.589108
797.851562	-46.795021
798.828125	-46.172153
799.804688	-46.211983
800.781250	-46.810719
801.757812	-46.550308
802.734375	-46.315113
803.710938	-46.677036
804.687500	-47.296593
805.664062	-46.388824
806.640625	-47.073158
807.617188	-46.681232
808.593750	-47.385418
809.570312	-47.271854
810.546875	-47.673088
811.523438	-46.845943
812.500000	-46.872673
813.476562	-47.374115
814.453125	-46.983261
815.429688	-46.743454
816.406250	-46.686199
817.382812	-46.619328
818.359375	-47.384369
819.335938	-47.704090
820.312500	-46.752174
821.289062	-46.135353
822.265625	-47.139538
823.242188	-46.445030
824.218750	-47.069321
825.195312	-47.412628
826.171875	-47.065186
827.148438	-47.099834
828.125000	-46.867699
829.101562	-46.578640
830.078125	-47.017979
831.054688	-47.108543
832.031250	-46.741840
833.007812	-46.192669
833.984375	-47.082001
834.960938	-47.033394
835.937500	-46.535843
836.914062	-47.380527
837.890625	-46.757381
838.867188	-47.299957
839.843750	-46.906349
840.820312	-46.702297
841.796875	-47.150692
842.773438	-47.854393
843.750000	-47.530907
844.726562	-47.068153
845.703125	-47.121189
846.679688	-46.625957
847.656250	-46.957077
848.632812	-46.970028
849.609375	-46.681728
850.585938	-46.086823
851.562500	-46.938282
852.539062	-47.436264
853.515625	-47.391853
854.492188	-47.209290
855.468750	-47.113441
856.445312	-46.621365
857.421875	-47.212040
858.398438	-47.204754
859.375000	-46.947166
860.351562	-46.644096
861.328125	-46.533997
862.304688	-46.263599
863.281250	-47.086464
864.257812	-47.891201
865.234375	-46.576012
866.210938	-46.620602
867.187500	-46.742554
868.164062	-46.865967
869.140625	-47.051655
870.117188	-47.343979
871.093750	-46.309956
872.070312	-45.947407
873.046875	-46.503799
874.023438	-47.340786
875.000000	-47.409996
875.976562	-46.517162
876.953125	-46.279140
877.929688	-46.765446
878.906250	-46.485947
879.882812	-46.868328
880.859375	-46.844238
881.835938	-46.861958
882.812500	-46.322952
883.789062	-47.762081
884.765625	-46.298187
885.742188	-47.210167
886.718750	-47.036644
887.695312	-46.464031
888.671875	-47.180275
889.648438	-47.010288
890.625000	-46.667301
891.601562	-46.646477
892.578125	-46.623543
893.554688	-47.407124
894.531250	-46.426308
895.507812	-46.082878
896.484375	-46.614994
897.460938	-47.480450
898.437500	-46.267654
899.414062	-46.136559
900.390625	-47.206539
901.367188	-46.632389
902.343750	-46.838245
903.320312	-47.167721
904.296875	-47.550735
905.273438	-47.800755
906.250000	-47.999088
907.226562	-46.976151
908.203125	-47.460445
909.179688	-47.253540
910.156250	-46.879875
911.132812	-46.346661
912.109375	-47.207294
913.085938	-47.350327
914.062500	-46.414089
915.039062	-47.395073
916.015625	-46.820129
916.992188	-46.512981
917.968750	-46.896923
918.945312	-46.757664
919.921875	-46.787689
920.898438	-47.281086
921.875000	-46.903469
922.851562	-46.963814
923.828125	-45.871262
924.804688	-46.765209
925.781250	-47.505550
926.757812	-46.031620
927.734375	-47.045307
928.710938	-47.228897
929.687500	-47.332329
930.664062	-46.936325
931.640625	-46.874275
932.617188	-47.124439
933.593750	-46.693691
934.570312	-47.758064
935.546875	-47.194664
936.523438	-47.187145
937.500000	-47.120754
938.476562	-46.830559
939.453125	-46.963810
940.429688	-47.760441
941.406250	-46.612057
942.382812	-46.665474
943.359375	-46.988277
944.335938	-46.862778
945.312500	-47.485931
946.289062	-46.400433
947.265625	-46.475060
948.242188	-47.409939
949.218750	-46.083302
950.195312	-46.751717
951.171875	-46.698284
952.148438	-46.505062
953.125000	-47.390827
954.101562	-46.494068
955.078125	-46.675091
956.054688	-47.560707
957.031250	-46.842365
958.007812	-46.603889
958.984375	-46.255333
959.960938	-47.689953
960.937500	-47.381878
961.914062	-46.882504
962.890625	-47.431293
963.867188	-47.218796
964.843750	-47.220291
965.820312	-47.009380
966.796875	-46.829098
967.773438	-46.547432
968.750000	-46.478931
969.726562	-47.102852
970.703125	-46.501492
971.679688	-47.211010
972.656250	-46.128235
973.632812	-46.549950
974.609375	-47.503319
975.585938	-46.355442
976.562500	-47.071857
977.539062	-47.322193
978.515625	-46.980282
979.492188	-46.439548
980.468750	-47.136089
981.445312	-47.475792
982.421875	-46.054344
983.398438	-46.288155
984.375000	-46.842960
985.351562	-46.412441
986.328125	-46.983406
987.304688	-47.224907
988.281250	-47.522648
989.257812	-46.799324
990.234375	-46.555656
991.210938	-46.928986
992.187500	-46.706249
993.164062	-46.221642
994.140625	-46.481735
995.117188	-46.616985
996.093750	-46.476734
997.070312	-46.736271
998.046875	-47.152576
999.023438	-46.895332
1000.000000	-46.809628
1000.976562	-47.334236
1001.953125	-47.306400
1002.929688	-47.155010
1003.906250	-46.769173
1004.882812	-46.981834
1005.859375	-47.028988
1006.835938	-46.940247
1007.812500	-47.393978
1008.789062	-46.928631
1009.765625	-46.273403
1010.742188	-47.046917
1011.718750	-47.112679
1012.695312	-47.406509
1013.671875	-47.346706
1014.648438	-45.810223
1015.625000	-46.921955
1016.601562	-46.846661
1017.578125	-46.843273
1018.554688	-47.089977
1019.531250	-46.639774
1020.507812	-46.879345
1021.484375	-47.477314
1022.460938	-46.822437
1023.437500	-47.069992
1024.414062	-47.241295
1025.390625	-47.171131
1026.367188	-46.740604
1027.343750	-47.391453
1028.320312	-47.603577
1029.296875	-46.292778
1030.273438	-46.956501
1031.250000	-46.943356
1032.226562	-46.039051
1033.203125	-46.973782
1034.179688	-46.542061
1035.156250	-47.107727
1036.132812	-46.684364
1037.109375	-47.962875
1038.085938	-46.430370
1039.062500	-47.311684
1040.039062	-47.430176
1041.015625	-47.142040
1041.992188	-47.872139
1042.968750	-46.976185
1043.945312	-47.204762
1044.921875	-47.124874
1045.898438	-47.684261
1046.875000	-47.296165
1047.851562	-47.389923
1048.828125	-47.331814
1049.804688	-47.243584
1050.781250	-46.841282
1051.757812	-47.709332
1052.734375	-46.580105
1053.710938	-47.179531
1054.687500	-47.168354
1055.664062	-46.392948
1056.640625	-46.548950
1057.617188	-47.371170
1058.593750	-46.505943
1059.570312	-47.426620
1060.546875	-46.955231
1061.523438	-46.292675
1062.500000	-47.316483
1063.476562	-47.194290
1064.453125	-47.241482
1065.429688	-46.737919
1066.406250	-46.599468
1067.382812	-46.687920
1068.359375	-46.858479
1069.335938	-46.180508
1070.312500	-46.518913
1071.289062	-47.099083
1072.265625	-47.180965
1073.242188	-46.388153
1074.218750	-46.980259
1075.195312	-46.817287
1076.171875	-46.885632
1077.148438	-47.788166
1078.125000	-46.765530
1079.101562	-46.513065
1080.078125	-47.260872
1081.054688	-46.863503
1082.031250	-46.713959
1083.007812	-47.190784
1083.984375	-46.780918
1084.960938	-47.194607
1085.937500	-47.338078
1086.914062	-46.772919
1087.890625	-46.677902
1088.867188	-47.641815
1089.843750	-46.899162
1090.820312	-46.888702
1091.796875	-47.113312
1092.773438	-46.663712
1093.750000	-46.556175
1094.726562	-46.799267
1095.703125	-46.445625
1096.679688	-46.751083
1097.656250	-47.812901
1098.632812	-46.873192
1099.609375	-46.941822
1100.585938	-47.211784
1101.562500	-47.049099
1102.539062	-46.581165
1103.515625	-47.484062
1104.492188	-46.826923
1105.468750	-46.558033
1106.445312	-46.465897
1107.421875	-46.993198
1108.398438	-47.443287
1109.375000	-47.699646
1110.351562	-47.609913
1111.328125	-47.313820
1112.304688	-47.129059
1113.281250	-46.058838
1114.257812	-46.138599
1115.234375	-46.633709
1116.210938	-47.051743
1117.187500	-46.879551
1118.164062	-47.244991
1119.140625	-47.401054
1120.117188	-47.543621
1121.093750	-46.587929
1122.070312	-47.042076
1123.046875	-46.899654
1124.023438	-46.511227
1125.000000	-47.140568
1125.976562	-46.759232
1126.953125	-47.043854
1127.929688	-47.171574
1128.906250	-46.347393
1129.882812	-46.750294
1130.859375	-47.671989
1131.835938	-47.509468
1132.812500	-47.348427
1133.789062	-47.736134
1134.765625	-47.352188
1135.742188	-47.910816
1136.718750	-47.353176
1137.695312	-46.916641
1138.671875	-46.884033
1139.648438	-47.336342
1140.625000	-46.788372
1141.601562	-46.796326
1142.578125	-46.963512
1143.554688	-46.725204
1144.531250	-46.526600
1145.507812	-46.763241
1146.484375	-46.695427
1147.460938	-46.742405
1148.437500	-47.111240
1149.414062	-46.718361
1150.390625	-46.983768
1151.367188	-47.060310
1152.343750	-46.984924
1153.320312	-46.804241
1154.296875	-46.388069
1155.273438	-47.169609
1156.250000	-46.092583
1157.226562	-47.094261
1158.203125	-46.981499
1159.179688	-47.213657
1160.156250	-47.168365
1161.132812	-46.983822
1162.109375	-47.157242
1163.085938	-47.173916
1164.062500	-46.976055
1165.039062	-47.963501
1166.015625	-47.047874
1166.992188	-47.456501
1167.968750	-47.177773
1168.945312	-46.959259
1169.921875	-47.123997
1170.898438	-47.111153
1171.875000	-46.992870
1172.851562	-46.653450
1173.828125	-47.128967
1174.804688	-46.930103
1175.781250	-47.097435
1176.757812	-47.621532
1177.734375	-47.284580
1178.710938	-46.874935
1179.687500	-47.198040
1180.664062	-47.107277
1181.640625	-46.785866
1182.617188	-46.965302
1183.593750	-46.819057
1184.570312	-46.636181
1185.546875	-47.004974
1186.523438	-46.759125
1187.500000	-47.374161
1188.476562	-46.525238
1189.453125	-47.300781
1190.429688	-46.372093
1191.406250	-46.629894
1192.382812	-46.962788
1193.359375	-47.067760
1194.335938	-46.252502
1195.312500	-46.918491
1196.289062	-46.919403
1197.265625	-47.211948
1198.242188	-46.594547
1199.218750	-47.189117
1200.195312	-46.627846
1201.171875	-46.881016
1202.148438	-46.261997
1203.125000	-46.895950
1204.101562	-46.319019
1205.078125	-46.440468
1206.054688	-47.238914
1207.031250	-47.095062
1208.007812	-47.382439
1208.984375	-47.247982
1209.960938	-46.242260
1210.937500	-47.029640
1211.914062	-46.389400
1212.890625	-46.824780
1213.867188	-47.124287
1214.843750	-47.394875
1215.820312	-47.461300
1216.796875	-48.174744
1217.773438	-47.019516
1218.750000	-46.654343
1219.726562	-46.793961
1220.703125	-46.634834
1221.679688	-46.773933
1222.656250	-46.608376
1223.632812	-47.341022
1224.609375	-46.798092
1225.585938	-46.918930
1226.562500	-46.751076
1227.539062	-46.621674
1228.515625	-46.584572
1229.492188	-46.692757
1230.468750	-46.440144
1231.445312	-46.776943
1232.421875	-46.695560
1233.398438	-47.073315
1234.375000	-46.967186
1235.351562	-46.890541
1236.328125	-46.763493
1237.304688	-46.607296
1238.281250	-46.843872
1239.257812	-46.423565
1240.234375	-47.240936
1241.210938	-46.126579
1242.187500	-47.134377
1243.164062	-46.623177
1244.140625	-46.820408
1245.117188	-47.760124
1246.093750	-46.179401
1247.070312	-47.156853
1248.046875	-46.816849
1249.023438	-47.063194
1250.000000	-47.372055
1250.976562	-47.240143
1251.953125	-46.358646
1252.929688	-46.474491
1253.906250	-47.217335
1254.882812	-46.929790
1255.859375	-46.387451
1256.835938	-47.071266
1257.812500	-47.633011
1258.789062	-46.607140
1259.765625	-46.739609
1260.742188	-47.358379
1261.718750	-46.905651
1262.695312	-47.484390
1263.671875	-46.521523
1264.648438	-46.984509
1265.625000	-46.698990
1266.601562	-46.901108
1267.578125	-47.045696
1268.554688	-47.346684
1269.531250	-47.706863
1270.507812	-47.419807
1271.484375	-47.043839
1272.460938	-46.936016
1273.437500	-46.421894
1274.414062	-46.759689
1275.390625	-46.540176
1276.367188	-46.511478
1277.343750	-47.552673
1278.320312	-46.343849
1279.296875	-45.825237
1280.273438	-46.572289
1281.250000	-46.914742
1282.226562	-46.385834
1283.203125	-47.057331
1284.179688	-47.252956
1285.156250	-46.707546
1286.132812	-47.007965
1287.109375	-47.236187
1288.085938	-46.840298
1289.062500	-46.770927
1290.039062	-46.623581
1291.015625	-46.303772
1291.992188	-46.653980
1292.968750	-47.630825
1293.945312	-47.881466
1294.921875	-47.231544
1295.898438	-46.433289
1296.875000	-46.696045
1297.851562	-46.323784
1298.828125	-46.604553
1299.804688	-46.195187
1300.781250	-46.912914
1301.757812	-46.487141
1302.734375	-46.812656
1303.710938	-46.958450
1304.687500	-47.538326
1305.664062	-46.758690
1306.640625	-47.041431
1307.617188	-47.220867
1308.593750	-47.003067
1309.570312	-47.121613
1310.546875	-46.363613
1311.523438	-46.807884
1312.500000	-46.571568
1313.476562	-47.214157
1314.453125	-46.496372
1315.429688	-46.744156
1316.406250	-47.063854
1317.382812	-46.295109
1318.359375	-47.550701
1319.335938	-47.234913
1320.312500	-47.240425
1321.289062	-46.628201
1322.265625	-46.405918
1323.242188	-47.541451
1324.218750	-47.743645
1325.195312	-47.095226
1326.171875	-47.010563
1327.148438	-47.267002
1328.125000	-46.385769
1329.101562	-46.969749
1330.078125	-46.566242
1331.054688	-46.685940
1332.031250	-46.919762
1333.007812	-46.327351
1333.984375	-46.815128
1334.960938	-46.658257
1335.937500	-46.645290
1336.914062	-47.065681
1337.890625	-46.545422
1338.867188	-46.439915
1339.843750	-46.675091
1340.820312	-46.771408
1341.796875	-47.325378
1342.773438	-46.895611
1343.750000	-46.577141
1344.726562	-46.054756
1345.703125	-46.680531
1346.679688	-47.381340
1347.656250	-47.450863
1348.632812	-47.266640
1349.609375	-47.097111
1350.585938	-47.004143
1351.562500	-47.463715
1352.539062	-47.166389
1353.515625	-47.680649
1354.492188	-47.467533
1355.468750	-46.344620
1356.445312	-46.632126
1357.421875	-47.767567
1358.398438	-47.023727
1359.375000	-47.073425
1360.351562	-47.116039
1361.328125	-47.006882
1362.304688	-47.815933
1363.281250	-47.309494
1364.257812	-46.878197
1365.234375	-46.776321
1366.210938	-46.565968
1367.187500	-47.352829
1368.164062	-46.332623
1369.140625	-47.182518
1370.117188	-46.824165
1371.093750	-46.363182
1372.070312	-46.605801
1373.046875	-46.033535
1374.023438	-47.480068
1375.000000	-47.306183
1375.976562	-46.784157
1376.953125	-46.761795
1377.929688	-46.908356
1378.906250	-47.248276
1379.882812	-47.308624
1380.859375	-46.278980
1381.835938	-46.982090
1382.812500	-46.983772
1383.789062	-47.304115
1384.765625	-46.103363
1385.742188	-46.539368
1386.718750	-46.201885
1387.695312	-46.760269
1388.671875	-46.510479
1389.648438	-46.502811
1390.625000	-46.940723
1391.601562	-46.414589
1392.578125	-47.282734
1393.554688	-47.335804
1394.531250	-46.974781
1395.507812	-47.158123
1396.484375	-46.399204
1397.460938	-46.926876
1398.437500	-45.957989
1399.414062	-46.851616
1400.390625	-47.819897
1401.367188	-47.062229
1402.343750	-46.483688
1403.320312	-47.116196
1404.296875	-46.544247
1405.273438	-46.424797
1406.250000	-47.802429
1407.226562	-47.276592
1408.203125	-46.849411
1409.179688	-46.884426
1410.156250	-46.350544
1411.132812	-46.957027
1412.109375	-47.170940
1413.085938	-46.531254
1414.062500	-47.342632
1415.039062	-47.286659
1416.015625	-47.203342
1416.992188	-46.570961
1417.968750	-47.318893
1418.945312	-46.803555
1419.921875	-47.594730
1420.898438	-46.503368
1421.875000	-46.637516
1422.851562	-47.126499
1423.828125	-46.963943
1424.804688	-46.874424
1425.781250	-47.672169
1426.757812	-47.499908
1427.734375	-47.063892
1428.710938	-46.834286
1429.687500	-47.312374
1430.664062	-46.280064
1431.640625	-46.597359
1432.617188	-46.506622
1433.593750	-46.786098
1434.570312	-46.721867
1435.546875	-46.977489
1436.523438	-46.574585
1437.500000	-47.090027
1438.476562	-47.314587
1439.453125	-47.711987
1440.429688	-47.905388
1441.406250	-46.819618
1442.382812	-46.671715
1443.359375	-48.016953
1444.335938	-47.813366
1445.312500	-47.056164
1446.289062	-47.435848
1447.265625	-46.998363
1448.242188	-46.980667
1449.218750	-46.774227
1450.195312	-47.008430
1451.171875	-47.201485
1452.148438	-47.050858
1453.125000	-46.582085
1454.101562	-46.268860
1455.078125	-47.096947
1456.054688	-47.044296
1457.031250	-47.121071
1458.007812	-47.029106
1458.984375	-47.203781
1459.960938	-47.138664
1460.937500	-46.960030
1461.914062	-46.732311
1462.890625	-46.254898
1463.867188	-47.220837
1464.843750	-46.883896
1465.820312	-46.675224
1466.796875	-46.623375
1467.773438	-47.520672
1468.750000	-46.717209
1469.726562	-46.577423
1470.703125	-46.386772
1471.679688	-47.601616
1472.656250	-46.933613
1473.632812	-47.840893
1474.609375	-47.264496
1475.585938	-47.225842
1476.562500	-47.173206
1477.539062	-46.922855
1478.515625	-47.137005
1479.492188	-46.976826
1480.468750	-46.699238
1481.445312	-46.687748
1482.421875	-46.791676
1483.398438	-47.593231
1484.375000	-46.483372
1485.351562	-47.302017
1486.328125	-47.261074
1487.304688	-46.572411
1488.281250	-47.074780
1489.257812	-47.220467
1490.234375	-47.571835
1491.210938	-47.461777
1492.187500	-47.100327
1493.164062	-46.736256
1494.140625	-47.253223
1495.117188	-46.487343
1496.093750	-46.733109
1497.070312	-47.288696
1498.046875	-47.368542
1499.023438	-47.469421
1500.000000	-46.321377
1500.976562	-47.223545
1501.953125	-47.314415
1502.929688	-46.849525
1503.906250	-47.233364
1504.882812	-47.060535
1505.859375	-46.937302
1506.835938	-47.669113
1507.812500	-46.811253
1508.789062	-46.633003
1509.765625	-47.524204
1510.742188	-47.164211
1511.718750	-47.689941
1512.695312	-46.338783
1513.671875	-46.863575
1514.648438	-47.453758
1515.625000	-47.537289
1516.601562	-46.681419
1517.578125	-46.248528
1518.554688	-46.366013
1519.531250	-46.273033
1520.507812	-47.524166
1521.484375	-47.019627
1522.460938	-46.733120
1523.437500	-47.505219
1524.414062	-47.079681
1525.390625	-46.685215
1526.367188	-46.960171
1527.343750	-46.866283
1528.320312	-47.088062
1529.296875	-46.793198
1530.273438	-46.468281
1531.250000	-47.796543
1532.226562	-47.853897
1533.203125	-47.169220
1534.179688	-47.319706
1535.156250	-47.132179
1536.132812	-47.703785
1537.109375	-47.244671
1538.085938	-46.504353
1539.062500	-46.855099
1540.039062	-46.789227
1541.015625	-46.977669
1541.992188	-46.520813
1542.968750	-47.354126
1543.945312	-47.352238
1544.921875	-47.469009
1545.898438	-47.419125
1546.875000	-47.568157
1547.851562	-47.990372
1548.828125	-46.673141
1549.804688	-46.656612
1550.781250	-47.132816
1551.757812	-46.973492
1552.734375	-46.981472
1553.710938	-47.005104
1554.687500	-47.432770
1555.664062	-46.828445
1556.640625	-47.322224
1557.617188	-46.388020
1558.593750	-47.267200
1559.570312	-46.392982
1560.546875	-46.509331
1561.523438	-47.166431
1562.500000	-46.776508
1563.476562	-47.065990
1564.453125	-47.343159
1565.429688	-47.495567
1566.406250	-47.019039
1567.382812	-47.497932
1568.359375	-47.242962
1569.335938	-47.060528
1570.312500	-46.602135
1571.289062	-46.838535
1572.265625	-46.503384
1573.242188	-46.408936
1574.218750	-47.322155
1575.195312	-47.329800
1576.171875	-47.668587
1577.148438	-47.353828
1578.125000	-47.268684
1579.101562	-47.377937
1580.078125	-46.960121
1581.054688	-46.501278
1582.031250	-47.228050
1583.007812	-46.625759
1583.984375	-46.872841
1584.960938	-47.066456
1585.937500	-46.278358
1586.914062	-46.613842
1587.890625	-46.781418
1588.867188	-45.919411
1589.843750	-46.926228
1590.820312	-46.931541
1591.796875	-46.004608
1592.773438	-47.054993
1593.750000	-46.887058
1594.726562	-46.894844
1595.703125	-47.161282
1596.679688	-46.528988
1597.656250	-47.182728
1598.632812	-46.986542
1599.609375	-46.598755
1600.585938	-46.820210
1601.562500	-47.235298
1602.539062	-47.184269
1603.515625	-47.079746
1604.492188	-46.333061
1605.468750	-46.912807
1606.445312	-47.095165
1607.421875	-47.914631
1608.398438	-46.630867
1609.375000	-46.718586
1610.351562	-47.388920
1611.328125	-47.130520
1612.304688	-46.859165
1613.281250	-46.877605
1614.257812	-47.101387
1615.234375	-47.183647
1616.210938	-46.793064
1617.187500	-47.632908
1618.164062	-47.290524
1619.140625	-46.407440
1620.117188	-46.062172
1621.093750	-46.701599
1622.070312	-47.372486
1623.046875	-47.371681
1624.023438	-47.167515
1625.000000	-47.036148
1625.976562	-46.338772
1626.953125	-47.219337
1627.929688	-46.862896
1628.906250	-47.283665
1629.882812	-46.850163
1630.859375	-46.539581
1631.835938	-47.265209
1632.812500	-46.515099
1633.789062	-47.071964
1634.765625	-46.943920
1635.742188	-47.028812
1636.718750	-46.499908
1637.695312	-47.579937
1638.671875	-47.733936
1639.648438	-46.514713
1640.625000	-47.309601
1641.601562	-47.766907
1642.578125	-47.012905
1643.554688	-46.649437
1644.531250	-46.779713
1645.507812	-46.864792
1646.484375	-46.434258
1647.460938	-47.580116
1648.437500	-46.863651
1649.414062	-47.241451
1650.390625	-46.406216
1651.367188	-46.584373
1652.343750	-47.335484
1653.320312	-46.051590
1654.296875	-46.617477
1655.273438	-46.552361
1656.250000	-46.641403
1657.226562	-46.834724
1658.203125	-46.971420
1659.179688	-47.717678
1660.156250	-46.906548
1661.132812	-46.172878
1662.109375	-46.851398
1663.085938	-46.529881
1664.062500	-46.366455
1665.039062	-46.811451
1666.015625	-47.233402
1666.992188	-46.621471
1667.968750	-46.452988
1668.945312	-47.137463
1669.921875	-47.655827
1670.898438	-47.043751
1671.875000	-47.149708
1672.851562	-46.428360
1673.828125	-46.738190
1674.804688	-47.346222
1675.781250	-46.524105
1676.757812	-47.259808
1677.734375	-46.871361
1678.710938	-46.373028
1679.687500	-47.468456
1680.664062	-47.646828
1681.640625	-47.160576
1682.617188	-47.196579
1683.593750	-47.107685
1684.570312	-46.916351
1685.546875	-47.421867
1686.523438	-46.273239
1687.500000	-47.003624
1688.476562	-46.918823
1689.453125	-46.416752
1690.429688	-46.841476
1691.406250	-47.736160
1692.382812	-47.124542
1693.359375	-46.128384
1694.335938	-46.654697
1695.312500	-46.724365
1696.289062	-47.262978
1697.265625	-47.648136
1698.242188	-46.985073
1699.218750	-46.803993
1700.195312	-46.742096
1701.171875	-46.274670
1702.148438	-46.357487
1703.125000	-47.384624
1704.101562	-47.477432
1705.078125	-46.910095
1706.054688	-47.293747
1707.031250	-47.265579
1708.007812	-46.940163
1708.984375	-47.094551
1709.960938	-46.584927
1710.937500	-46.899422
1711.914062	-46.944496
1712.890625	-47.404789
1713.867188	-46.759396
1714.843750	-46.296501
1715.820312	-47.001595
1716.796875	-47.821697
1717.773438	-46.770191
1718.750000	-46.583775
1719.726562	-46.600178
1720.703125	-47.226398
1721.679688	-47.250820
1722.656250	-47.314964
1723.632812	-46.473824
1724.609375	-46.860863
1725.585938	-47.721767
1726.562500	-47.315880
1727.539062	-46.464386
1728.515625	-46.947674
1729.492188	-46.752445
1730.468750	-46.973309
1731.445312	-47.060852
1732.421875	-46.759747
1733.398438	-47.197929
1734.375000	-46.704456
1735.351562	-46.666401
1736.328125	-46.551788
1737.304688	-46.716072
1738.281250	-46.491768
1739.257812	-47.464722
1740.234375	-47.713974
1741.210938	-46.935772
1742.187500	-46.810574
1743.164062	-47.366447
1744.140625	-46.661236
1745.117188	-47.110767
1746.093750	-46.675385
1747.070312	-46.981354
1748.046875	-46.374054
1749.023438	-47.106251
1750.000000	-46.568588
1750.976562	-46.054333
1751.953125	-47.017002
1752.929688	-47.297550
1753.906250	-46.833614
1754.882812	-46.553917
1755.859375	-47.466896
1756.835938	-47.606991
1757.812500	-46.482071
1758.789062	-46.863560
1759.765625	-46.480762
1760.742188	-47.100727
1761.718750	-47.086029
1762.695312	-46.771027
1763.671875	-46.501236
1764.648438	-47.222469
1765.625000	-47.107109
1766.601562	-46.609806
1767.578125	-46.077991
1768.554688	-46.636387
1769.531250	-47.048306
1770.507812	-47.135212
1771.484375	-46.536079
1772.460938	-46.559361
1773.437500	-46.401348
1774.414062	-46.653870
1775.390625	-46.816566
1776.367188	-47.146881
1777.343750	-46.501907
1778.320312	-48.275475
1779.296875	-46.958542
1780.273438	-47.660915
1781.250000	-47.313438
1782.226562	-46.406048
1783.203125	-46.806271
1784.179688	-46.376289
1785.156250	-46.316479
1786.132812	-47.573051
1787.109375	-47.133251
1788.085938	-46.655926
1789.062500	-46.811806
1790.039062	-46.721638
1791.015625	-47.001530
1791.992188	-47.347725
1792.968750	-47.115570
1793.945312	-46.761101
1794.921875	-46.747654
1795.898438	-47.144989
1796.875000	-46.377575
1797.851562	-47.028606
1798.828125	-47.383423
1799.804688	-47.055676
1800.781250	-47.453228
1801.757812	-46.317612
1802.734375	-46.541222
1803.710938	-46.946480
1804.687500	-47.966801
1805.664062	-47.654736
1806.640625	-47.421169
1807.617188	-47.456631
1808.593750	-46.887028
1809.570312	-46.927868
1810.546875	-47.034374
1811.523438	-47.124256
1812.500000	-47.401741
1813.476562	-46.695709
1814.453125	-47.134270
1815.429688	-46.629803
1816.406250	-46.898899
1817.382812	-47.095325
1818.359375	-47.352383
1819.335938	-46.613937
1820.312500	-47.026268
1821.289062	-47.060219
1822.265625	-46.947754
1823.242188	-46.231949
1824.218750	-46.456863
1825.195312	-46.522232
1826.171875	-47.116093
1827.148438	-47.196644
1828.125000	-46.226658
1829.101562	-46.774719
1830.078125	-46.831207
1831.054688	-46.937538
1832.031250	-46.892998
1833.007812	-46.989471
1833.984375	-46.741280
1834.960938	-46.325649
1835.937500	-46.437496
1836.914062	-46.622776
1837.890625	-47.261696
1838.867188	-47.112652
1839.843750	-47.116798
1840.820312	-47.200531
1841.796875	-46.584297
1842.773438	-47.002605
1843.750000	-46.855034
1844.726562	-46.544060
1845.703125	-46.459354
1846.679688	-46.733807
1847.656250	-46.857487
1848.632812	-46.037067
1849.609375	-47.225666
1850.585938	-47.068035
1851.562500	-46.871643
1852.539062	-47.145027
1853.515625	-47.544209
1854.492188	-47.900280
1855.468750	-47.178501
1856.445312	-47.510963
1857.421875	-46.681396
1858.398438	-46.512924
1859.375000	-46.514141
1860.351562	-46.464954
1861.328125	-46.551456
1862.304688	-46.712284
1863.281250	-48.474831
1864.257812	-47.909061
1865.234375	-46.666462
1866.210938	-46.218349
1867.187500	-46.320240
1868.164062	-46.567806
1869.140625	-47.494930
1870.117188	-46.519054
1871.093750	-47.302574
1872.070312	-46.872391
1873.046875	-47.059566
1874.023438	-47.047924
1875.000000	-46.772511
1875.976562	-47.145088
1876.953125	-46.298885
1877.929688	-46.564854
1878.906250	-46.859726
1879.882812	-46.967529
1880.859375	-46.550053
1881.835938	-47.713943
1882.812500	-46.808010
1883.789062	-46.681129
1884.765625	-47.521942
1885.742188	-47.102066
1886.718750	-47.074612
1887.695312	-47.258171
1888.671875	-47.783894
1889.648438	-46.736908
1890.625000	-47.140106
1891.601562	-47.135250
1892.578125	-47.035664
1893.554688	-46.905064
1894.531250	-47.051991
1895.507812	-46.668297
1896.484375	-46.666851
1897.460938	-46.585224
1898.437500	-47.004116
1899.414062	-46.883472
1900.390625	-47.016766
1901.367188	-46.926498
1902.343750	-46.920818
1903.320312	-47.064056
1904.296875	-47.370884
1905.273438	-47.190006
1906.250000	-47.552971
1907.226562	-46.650230
1908.203125	-47.586143
1909.179688	-47.552444
1910.156250	-47.625420
1911.132812	-46.485363
1912.109375	-46.551136
1913.085938	-46.429810
1914.062500	-47.696625
1915.039062	-47.634644
1916.015625	-47.333221
1916.992188	-46.995106
1917.968750	-47.106697
1918.945312	-47.073444
1919.921875	-46.737850
1920.898438	-46.931496
1921.875000	-46.536007
1922.851562	-46.398270
1923.828125	-46.477276
1924.804688	-46.585739
1925.781250	-46.754639
1926.757812	-46.361809
1927.734375	-46.724949
1928.710938	-47.135693
1929.687500	-46.772995
1930.664062	-47.006306
1931.640625	-46.502281
1932.617188	-47.161221
1933.593750	-46.916885
1934.570312	-47.111897
1935.546875	-46.967163
1936.523438	-46.350197
1937.500000	-46.848015
1938.476562	-46.673855
1939.453125	-46.473621
1940.429688	-47.023552
1941.406250	-46.989449
1942.382812	-46.841084
1943.359375	-46.274387
1944.335938	-46.906273
1945.312500	-47.223263
1946.289062	-46.532574
1947.265625	-46.213520
1948.242188	-46.072174
1949.218750	-46.800705
1950.195312	-47.031696
1951.171875	-47.810535
1952.148438	-47.818733
1953.125000	-47.555012
1954.101562	-47.289932
1955.078125	-46.989098
1956.054688	-46.647934
1957.031250	-47.566223
1958.007812	-46.442085
1958.984375	-47.168304
1959.960938	-46.613129
1960.937500	-46.082207
1961.914062	-47.194080
1962.890625	-46.348137
1963.867188	-47.282242
1964.843750	-47.028423
1965.820312	-46.184601
1966.796875	-46.685749
1967.773438	-46.972210
1968.750000	-46.430168
1969.726562	-46.746685
1970.703125	-46.467316
1971.679688	-46.710548
1972.656250	-47.687870
1973.632812	-47.221127
1974.609375	-46.931557
1975.585938	-46.766979
1976.562500	-47.120892
1977.539062	-46.645111
1978.515625	-46.692276
1979.492188	-47.726196
1980.468750	-46.182774
1981.445312	-46.226906
1982.421875	-47.329700
1983.398438	-47.490479
1984.375000	-46.718155
1985.351562	-46.386261
1986.328125	-46.440563
1987.304688	-46.814629
1988.281250	-46.663273
1989.257812	-46.405968
1990.234375	-46.731647
1991.210938	-46.510979
1992.187500	-46.716213
1993.164062	-47.109272
1994.140625	-46.887901
1995.117188	-46.930882
1996.093750	-46.751839
1997.070312	-46.767586
1998.046875	-46.988499
1999.023438	-46.867519
2000.000000	-47.097721
2000.976562	-47.145744
2001.953125	-47.303543
2002.929688	-46.505733
2003.906250	-46.643055
2004.882812	-47.426567
2005.859375	-47.238457
2006.835938	-47.357090
2007.812500	-46.738007
2008.789062	-46.840824
2009.765625	-46.623749
2010.742188	-47.421730
2011.718750	-47.442238
2012.695312	-47.142635
2013.671875	-47.578041
2014.648438	-47.525059
2015.625000	-46.794628
2016.601562	-46.650383
2017.578125	-46.017208
2018.554688	-46.684952
2019.531250	-46.785610
2020.507812	-47.282459
2021.484375	-46.692772
2022.460938	-47.228096
2023.437500	-47.317120
2024.414062	-47.439442
2025.390625	-46.654476
2026.367188	-46.904701
2027.343750	-46.935791
2028.320312	-46.950581
2029.296875	-46.740093
2030.273438	-46.573212
2031.250000	-46.592106
2032.226562	-47.416725
2033.203125	-46.897240
2034.179688	-45.826080
2035.156250	-46.847603
2036.132812	-47.561092
2037.109375	-47.450485
2038.085938	-47.494152
2039.062500	-46.898949
2040.039062	-47.593410
2041.015625	-46.570473
2041.992188	-47.145863
2042.968750	-46.920803
2043.945312	-46.395702
2044.921875	-47.390705
2045.898438	-47.044476
2046.875000	-46.400078
2047.851562	-46.933002
2048.828125	-46.845257
2049.804688	-47.550159
2050.781250	-46.661880
2051.757812	-47.573849
2052.734375	-46.607254
2053.710938	-46.960518
2054.687500	-46.743877
2055.664062	-47.403893
2056.640625	-47.048321
2057.617188	-47.050491
2058.593750	-46.931217
2059.570312	-46.520767
2060.546875	-47.125381
2061.523438	-46.351124
2062.500000	-47.026913
2063.476562	-46.763596
2064.453125	-46.202518
2065.429688	-46.596310
2066.406250	-46.734020
2067.382812	-46.263596
2068.359375	-46.897873
2069.335938	-46.699532
2070.312500	-46.205421
2071.289062	-47.450916
2072.265625	-47.133621
2073.242188	-46.971436
2074.218750	-46.190796
2075.195312	-47.237900
2076.171875	-47.854122
2077.148438	-47.147709
2078.125000	-47.003769
2079.101562	-47.086006
2080.078125	-47.466171
2081.054688	-47.068314
2082.031250	-46.888500
2083.007812	-47.333080
2083.984375	-47.145863
2084.960938	-47.525227
2085.937500	-47.243183
2086.914062	-46.666061
2087.890625	-46.942341
2088.867188	-46.862988
2089.843750	-46.973167
2090.820312	-47.425785
2091.796875	-47.005650
2092.773438	-46.880112
2093.750000	-47.181110
2094.726562	-47.127899
2095.703125	-46.628860
2096.679688	-46.789845
2097.656250	-46.073128
2098.632812	-47.421780
2099.609375	-46.928833
2100.585938	-46.450779
2101.562500	-47.896332
2102.539062	-47.066906
2103.515625	-46.721649
2104.492188	-45.887939
2105.468750	-47.344383
2106.445312	-46.364178
2107.421875	-46.326572
2108.398438	-46.622955
2109.375000	-46.718933
2110.351562	-46.796360
2111.328125	-46.190475
2112.304688	-46.350983
2113.281250	-47.185219
2114.257812	-46.903793
2115.234375	-47.202061
2116.210938	-47.128307
2117.187500	-46.981373
2118.164062	-47.735287
2119.140625	-47.542374
2120.117188	-47.807709
2121.093750	-46.399536
2122.070312	-46.378838
2123.046875	-46.556442
2124.023438	-46.875057
2125.000000	-46.857010
2125.976562	-47.567085
2126.953125	-46.919792
2127.929688	-46.809883
2128.906250	-47.077728
2129.882812	-46.943829
2130.859375	-46.952827
2131.835938	-46.865570
2132.812500	-46.546749
2133.789062	-46.216873
2134.765625	-46.906414
2135.742188	-46.253349
2136.718750	-46.236126
2137.695312	-46.567013
2138.671875	-46.538063
2139.648438	-46.754799
2140.625000	-46.548790
2141.601562	-46.310246
2142.578125	-47.137253
2143.554688	-46.471603
2144.531250	-46.833031
2145.507812	-46.293629
2146.484375	-46.591000
2147.460938	-46.902180
2148.437500	-46.290604
2149.414062	-47.416256
2150.390625	-47.242844
2151.367188	-46.995560
2152.343750	-47.011314
2153.320312	-46.969681
2154.296875	-47.336594
2155.273438	-46.915257
2156.250000	-46.903400
2157.226562	-47.369389
2158.203125	-46.849937
2159.179688	-46.561958
2160.156250	-46.581871
2161.132812	-46.238449
2162.109375	-47.545837
2163.085938	-47.340370
2164.062500	-46.583355
2165.039062	-46.904282
2166.015625	-47.250340
2166.992188	-46.669983
2167.968750	-46.371204
2168.945312	-47.068157
2169.921875	-46.666973
2170.898438	-47.060207
2171.875000	-46.555649
2172.851562	-46.083267
2173.828125	-47.201263
2174.804688	-46.755260
2175.781250	-47.509296
2176.757812	-46.845760
2177.734375	-46.563175
2178.710938	-47.166420
2179.687500	-46.984085
2180.664062	-46.616982
2181.640625	-47.864590
2182.617188	-46.839813
2183.593750	-47.435604
2184.570312	-47.313183
2185.546875	-48.200539
2186.523438	-46.959797
2187.500000	-46.732933
2188.476562	-46.649220
2189.453125	-47.363258
2190.429688	-47.396343
2191.406250	-46.785355
2192.382812	-46.805630
2193.359375	-46.426228
2194.335938	-47.020851
2195.312500	-46.548260
2196.289062	-46.808559
2197.265625	-47.652863
2198.242188	-47.049511
2199.218750	-46.941605
2200.195312	-46.978798
2201.171875	-46.778168
2202.148438	-46.680565
2203.125000	-46.848412
2204.101562	-46.694382
2205.078125	-47.289822
2206.054688	-47.401287
2207.031250	-47.392487
2208.007812	-47.185287
2208.984375	-47.946716
2209.960938	-46.676994
2210.937500	-46.779411
2211.914062	-46.716568
2212.890625	-46.847893
2213.867188	-46.495457
2214.843750	-46.708069
2215.820312	-47.527466
2216.796875	-46.645893
2217.773438	-46.310627
2218.750000	-48.029728
2219.726562	-47.168427
2220.703125	-47.012188
2221.679688	-47.214550
2222.656250	-46.864059
2223.632812	-47.597923
2224.609375	-47.272774
2225.585938	-47.374409
2226.562500	-46.762466
2227.539062	-47.138481
2228.515625	-46.227791
2229.492188	-46.719128
2230.468750	-46.661564
2231.445312	-46.777966
2232.421875	-46.751129
2233.398438	-46.745892
2234.375000	-46.906342
2235.351562	-46.992245
2236.328125	-47.321999
2237.304688	-47.268761
2238.281250	-47.511658
2239.257812	-46.992683
2240.234375	-47.143108
2241.210938	-46.742340
2242.187500	-46.731220
2243.164062	-46.641392
2244.140625	-46.623943
2245.117188	-46.703392
2246.093750	-46.780476
2247.070312	-47.380020
2248.046875	-47.409588
2249.023438	-46.960369
2250.000000	-47.111855
2250.976562	-47.103638
2251.953125	-46.955448
2252.929688	-46.761547
2253.906250	-46.701508
2254.882812	-46.333057
2255.859375	-47.255867
2256.835938	-47.015766
2257.812500	-47.050339
2258.789062	-46.489799
2259.765625	-46.606323
2260.742188	-46.942154
2261.718750	-46.769382
2262.695312	-47.038269
2263.671875	-46.733784
2264.648438	-48.046741
2265.625000	-46.986347
2266.601562	-47.231091
2267.578125	-47.585327
2268.554688	-47.431519
2269.531250	-46.540680
2270.507812	-46.892902
2271.484375	-47.083122
2272.460938	-47.351109
2273.437500	-46.756992
2274.414062	-46.651539
2275.390625	-47.238102
2276.367188	-47.243988
2277.343750	-47.240425
2278.320312	-46.647148
2279.296875	-47.378326
2280.273438	-46.619030
2281.250000	-47.142887
2282.226562	-47.222149
2283.203125	-46.097858
2284.179688	-46.563931
2285.156250	-46.642353
2286.132812	-47.341801
2287.109375	-46.569000
2288.085938	-47.054573
2289.062500	-46.220661
2290.039062	-46.734634
2291.015625	-46.637455
2291.992188	-46.199539
2292.968750	-47.479790
2293.945312	-47.222733
2294.921875	-46.776573
2295.898438	-47.194534
2296.875000	-46.793304
2297.851562	-47.192612
2298.828125	-46.458347
2299.804688	-46.872208
2300.781250	-46.398159
2301.757812	-47.354443
2302.734375	-46.624504
2303.710938	-46.821285
2304.687500	-47.354820
2305.664062	-46.942268
2306.640625	-46.317699
2307.617188	-47.289646
2308.593750	-46.819313
2309.570312	-47.100746
2310.546875	-46.983227
2311.523438	-46.922386
2312.500000	-46.693039
2313.476562	-47.102085
2314.453125	-47.070225
2315.429688	-46.887436
2316.406250	-47.302219
2317.382812	-48.097172
2318.359375	-46.512714
2319.335938	-46.703312
2320.312500	-47.194237
2321.289062	-46.904789
2322.265625	-47.633301
2323.242188	-46.877686
2324.218750	-46.785606
2325.195312	-47.149448
2326.171875	-46.697372
2327.148438	-46.681820
2328.125000	-46.953438
2329.101562	-47.724995
2330.078125	-47.256676
2331.054688	-47.237911
2332.031250	-47.147087
2333.007812	-46.909760
2333.984375	-47.205791
2334.960938	-46.621853
2335.937500	-47.006718
2336.914062	-46.794529
2337.890625	-47.498173
2338.867188	-47.073338
2339.843750	-46.665443
2340.820312	-46.557495
2341.796875	-46.430000
2342.773438	-46.938351
2343.750000	-46.750580
2344.726562	-46.926609
2345.703125	-47.161041
2346.679688	-46.188477
2347.656250	-46.764042
2348.632812	-47.154140
2349.609375	-46.064007
2350.585938	-46.435665
2351.562500	-46.705647
2352.539062	-46.855743
2353.515625	-47.418484
2354.492188	-45.760807
2355.468750	-47.318371
2356.445312	-47.802002
2357.421875	-46.578907
2358.398438	-46.969505
2359.375000	-46.573879
2360.351562	-46.831970
2361.328125	-47.520611
2362.304688	-46.722397
2363.281250	-46.740726
2364.257812	-47.264000
2365.234375	-47.153778
2366.210938	-46.683723
2367.187500	-47.465149
2368.164062	-46.826717
2369.140625	-47.241657
2370.117188	-47.136517
2371.093750	-46.612560
2372.070312	-47.673637
2373.046875	-47.310013
2374.023438	-46.736965
2375.000000	-46.834545
2375.976562	-47.348633
2376.953125	-47.214245
2377.929688	-47.184135
2378.906250	-46.467220
2379.882812	-47.795891
2380.859375	-47.464397
2381.835938	-46.890320
2382.812500	-46.399193
2383.789062	-46.582760
2384.765625	-46.996861
2385.742188	-46.882183
2386.718750	-46.556576
2387.695312	-47.351967
2388.671875	-46.774067
2389.648438	-46.857002
2390.625000	-47.115734
2391.601562	-46.285458
2392.578125	-47.867222
2393.554688	-46.904636
2394.531250	-46.909557
2395.507812	-46.522026
2396.484375	-46.375023
2397.460938	-47.262764
2398.437500	-48.071087
2399.414062	-47.166298
2400.390625	-47.066071
2401.367188	-47.732723
2402.343750	-47.462860
2403.320312	-47.340458
2404.296875	-46.805710
2405.273438	-47.241356
2406.250000	-47.591991
2407.226562	-46.881748
2408.203125	-46.945869
2409.179688	-47.461140
2410.156250	-47.435745
2411.132812	-46.793068
2412.109375	-46.457970
2413.085938	-46.448330
2414.062500	-47.354813
2415.039062	-47.043896
2416.015625	-46.904205
2416.992188	-47.258205
2417.968750	-47.140148
2418.945312	-47.599693
2419.921875	-47.413219
2420.898438	-47.575603
2421.875000	-46.027012
2422.851562	-46.770535
2423.828125	-47.028900
2424.804688	-46.624607
2425.781250	-47.014858
2426.757812	-46.869347
2427.734375	-46.302074
2428.710938	-47.378258
2429.687500	-47.105972
2430.664062	-46.694366
2431.640625	-47.314354
2432.617188	-46.535324
2433.593750	-46.452827
2434.570312	-47.033367
2435.546875	-46.830948
2436.523438	-47.530132
2437.500000	-47.843899
2438.476562	-47.057774
2439.453125	-47.548435
2440.429688	-46.234291
2441.406250	-46.509174
2442.382812	-46.874424
2443.359375	-47.048843
2444.335938	-46.754219
2445.312500	-47.171688
2446.289062	-46.909477
2447.265625	-47.134979
2448.242188	-46.616486
2449.218750	-46.967167
2450.195312	-47.440823
2451.171875	-47.896408
2452.148438	-47.548138
2453.125000	-47.783035
2454.101562	-46.620377
2455.078125	-47.002831
2456.054688	-46.936111
2457.031250	-46.958279
2458.007812	-47.103046
2458.984375	-46.577366
2459.960938	-47.628429
2460.937500	-47.585499
2461.914062	-47.120586
2462.890625	-46.616421
2463.867188	-46.823883
2464.843750	-47.002453
2465.820312	-47.661205
2466.796875	-48.550545
2467.773438	-47.712147
2468.750000	-47.226627
2469.726562	-46.899124
2470.703125	-46.852249
2471.679688	-46.321697
2472.656250	-47.037304
2473.632812	-46.865509
2474.609375	-46.873108
2475.585938	-46.988976
2476.562500	-47.240955
2477.539062	-47.595753
2478.515625	-47.370083
2479.492188	-47.031784
2480.468750	-47.326790
2481.445312	-47.841549
2482.421875	-47.341869
2483.398438	-47.264637
2484.375000	-47.228725
2485.351562	-47.666691
2486.328125	-46.944149
2487.304688	-47.178844
2488.281250	-46.584694
2489.257812	-47.748226
2490.234375	-46.978607
2491.210938	-47.288521
2492.187500	-47.467335
2493.164062	-46.510464
2494.140625	-47.350071
2495.117188	-47.151421
2496.093750	-47.108379
2497.070312	-47.245865
2498.046875	-47.129948
2499.023438	-46.355827
2500.000000	-46.254745
2500.976562	-47.260544
2501.953125	-46.818699
2502.929688	-47.251221
2503.906250	-45.958042
2504.882812	-46.432949
2505.859375	-47.143726
2506.835938	-46.555698
2507.812500	-46.467709
2508.789062	-46.762512
2509.765625	-46.966591
2510.742188	-47.019379
2511.718750	-46.666115
2512.695312	-46.777393
2513.671875	-46.930202
2514.648438	-46.745720
2515.625000	-46.725506
2516.601562	-46.746792
2517.578125	-46.291763
2518.554688	-46.123013
2519.531250	-46.652992
2520.507812	-46.951748
2521.484375	-47.207932
2522.460938	-47.207012
2523.437500	-46.737251
2524.414062	-47.474049
2525.390625	-47.035767
2526.367188	-46.821461
2527.343750	-46.925053
2528.320312	-46.952362
2529.296875	-47.022331
2530.273438	-46.627941
2531.250000	-46.857361
2532.226562	-46.582478
2533.203125	-47.319881
2534.179688	-47.398338
2535.156250	-47.306587
2536.132812	-47.500168
2537.109375	-47.083813
2538.085938	-46.906887
2539.062500	-46.174145
2540.039062	-46.482689
2541.015625	-47.139580
2541.992188	-46.706993
2542.968750	-46.319504
2543.945312	-46.236931
2544.921875	-47.028088
2545.898438	-46.316448
2546.875000	-47.294128
2547.851562	-47.445534
2548.828125	-46.500614
2549.804688	-46.152298
2550.781250	-46.332474
2551.757812	-46.528099
2552.734375	-46.857769
2553.710938	-47.456352
2554.687500	-47.653992
2555.664062	-46.330853
2556.640625	-46.825825
2557.617188	-47.429371
2558.593750	-47.128521
2559.570312	-47.308250
2560.546875	-46.092182
2561.523438	-47.125416
2562.500000	-45.906460
2563.476562	-48.141716
2564.453125	-47.650658
2565.429688	-46.767006
2566.406250	-46.602043
2567.382812	-46.818653
2568.359375	-46.496796
2569.335938	-46.537666
2570.312500	-46.920074
2571.289062	-46.142693
2572.265625	-47.324657
2573.242188	-47.441166
2574.218750	-47.140888
2575.195312	-47.197903
2576.171875	-47.673580
2577.148438	-47.079407
2578.125000	-46.962635
2579.101562	-46.657047
2580.078125	-46.965019
2581.054688	-47.403076
2582.031250	-46.897202
2583.007812	-46.540268
2583.984375	-47.539082
2584.960938	-46.733395
2585.937500	-46.952400
2586.914062	-47.257820
2587.890625	-47.043407
2588.867188	-48.168774
2589.843750	-46.616222
2590.820312	-46.891724
2591.796875	-46.986607
2592.773438	-46.680016
2593.750000	-46.879948
2594.726562	-46.439983
2595.703125	-46.987896
2596.679688	-46.762161
2597.656250	-46.317474
2598.632812	-47.316143
2599.609375	-47.045368
2600.585938	-47.092865
2601.562500	-47.232449
2602.539062	-46.643818
2603.515625	-46.295845
2604.492188	-46.888859
2605.468750	-46.450008
2606.445312	-46.558613
2607.421875	-47.000774
2608.398438	-46.649265
2609.375000	-46.670696
2610.351562	-46.887085
2611.328125	-47.417377
2612.304688	-47.122341
2613.281250	-46.813965
2614.257812	-46.823944
2615.234375	-47.314514
2616.210938	-47.361374
2617.187500	-47.647072
2618.164062	-47.189301
2619.140625	-46.648830
2620.117188	-47.990295
2621.093750	-47.159775
2622.070312	-47.266865
2623.046875	-47.752697
2624.023438	-46.924274
2625.000000	-46.989727
2625.976562	-47.089363
2626.953125	-47.335796
2627.929688	-46.899418
2628.906250	-46.852489
2629.882812	-46.528946
2630.859375	-47.181660
2631.835938	-47.249432
2632.812500	-47.296524
2633.789062	-46.925262
2634.765625	-47.443130
2635.742188	-46.227352
2636.718750	-47.090855
2637.695312	-47.152943
2638.671875	-47.381298
2639.648438	-46.617226
2640.625000	-46.663979
2641.601562	-47.103821
2642.578125	-46.349022
2643.554688	-46.553352
2644.531250	-46.817131
2645.507812	-46.051136
2646.484375	-46.904778
2647.460938	-46.243515
2648.437500	-46.868340
2649.414062	-46.778770
2650.390625	-46.411125
2651.367188	-45.880836
2652.343750	-47.168671
2653.320312	-46.996437
2654.296875	-47.112911
2655.273438	-46.756130
2656.250000	-45.787746
2657.226562	-46.736656
2658.203125	-46.815182
2659.179688	-46.856361
2660.156250	-46.556877
2661.132812	-47.415070
2662.109375	-47.596008
2663.085938	-46.638985
2664.062500	-47.705399
2665.039062	-46.706070
2666.015625	-46.305374
2666.992188	-46.758846
2667.968750	-46.447968
2668.945312	-46.187374
2669.921875	-47.340832
2670.898438	-46.879246
2671.875000	-47.191547
2672.851562	-47.530949
2673.828125	-46.523945
2674.804688	-46.812794
2675.781250	-46.737144
2676.757812	-47.522297
2677.734375	-46.399323
2678.710938	-47.718632
2679.687500	-47.148090
2680.664062	-47.307877
2681.640625	-46.186863
2682.617188	-46.299850
2683.593750	-46.715099
2684.570312	-47.233322
2685.546875	-46.398560
2686.523438	-46.981739
2687.500000	-46.820301
2688.476562	-47.399765
2689.453125	-45.979954
2690.429688	-46.813435
2691.406250	-46.628159
2692.382812	-46.728764
2693.359375	-46.490463
2694.335938	-46.487518
2695.312500	-47.327927
2696.289062	-47.831379
2697.265625	-46.870716
2698.242188	-46.525230
2699.218750	-46.577175
2700.195312	-46.655537
2701.171875	-46.825241
2702.148438	-46.938526
2703.125000	-47.009552
2704.101562	-46.860439
2705.078125	-46.963593
2706.054688	-47.059944
2707.031250	-46.984959
2708.007812	-46.514137
2708.984375	-47.259418
2709.960938	-47.320988
2710.937500	-46.339336
2711.914062	-46.981735
2712.890625	-46.978786
2713.867188	-46.453068
2714.843750	-47.090012
2715.820312	-46.845383
2716.796875	-47.252083
2717.773438	-47.245728
2718.750000	-47.473808
2719.726562	-47.292545
2720.703125	-46.467022
2721.679688	-46.935371
2722.656250	-46.551933
2723.632812	-46.993618
2724.609375	-47.055927
2725.585938	-47.880814
2726.562500	-47.559231
2727.539062	-46.798962
2728.515625	-46.937420
2729.492188	-47.164795
2730.468750	-47.269779
2731.445312	-47.035091
2732.421875	-47.092098
2733.398438	-47.306740
2734.375000	-46.215889
2735.351562	-46.497276
2736.328125	-47.023548
2737.304688	-47.171719
2738.281250	-47.613117
2739.257812	-46.905590
2740.234375	-46.399620
2741.210938	-46.250870
2742.187500	-46.622623
2743.164062	-47.759689
2744.140625	-46.806274
2745.117188	-47.240208
2746.093750	-47.531136
2747.070312	-47.841373
2748.046875	-47.079193
2749.023438	-47.114170
2750.000000	-46.660393
2750.976562	-47.626595
2751.953125	-46.835411
2752.929688	-47.049736
2753.906250	-46.852314
2754.882812	-47.177528
2755.859375	-46.807693
2756.835938	-46.429409
2757.812500	-47.807713
2758.789062	-47.893452
2759.765625	-46.400757
2760.742188	-46.427845
2761.718750	-47.126781
2762.695312	-47.276382
2763.671875	-46.501743
2764.648438	-45.900639
2765.625000	-47.312042
2766.601562	-47.589314
2767.578125	-46.560020
2768.554688	-47.251389
2769.531250	-47.156017
2770.507812	-47.026413
2771.484375	-47.133980
2772.460938	-47.138023
2773.437500	-47.247353
2774.414062	-47.335247
2775.390625	-46.790310
2776.367188	-46.875099
2777.343750	-47.114029
2778.320312	-46.915161
2779.296875	-46.546398
2780.273438	-47.069054
2781.250000	-47.039803
2782.226562	-47.293015
2783.203125	-46.608906
2784.179688	-46.769802
2785.156250	-47.569832
2786.132812	-47.168922
2787.109375	-46.188419
2788.085938	-46.529888
2789.062500	-47.606506
2790.039062	-47.342422
2791.015625	-47.370872
2791.992188	-47.182407
2792.968750	-47.701508
2793.945312	-47.667362
2794.921875	-46.743965
2795.898438	-48.240871
2796.875000	-47.133934
2797.851562	-46.375820
2798.828125	-46.891808
2799.804688	-46.565117
2800.781250	-46.318489
2801.757812	-46.844822
2802.734375	-47.118671
2803.710938	-46.642960
2804.687500	-46.641075
2805.664062	-47.207954
2806.640625	-47.383884
2807.617188	-47.212811
2808.593750	-47.101398
2809.570312	-46.680687
2810.546875	-46.290607
2811.523438	-46.737591
2812.500000	-46.988995
2813.476562	-46.558578
2814.453125	-46.745007
2815.429688	-46.298859
2816.406250	-46.595478
2817.382812	-46.471031
2818.359375	-46.625435
2819.335938	-46.225197
2820.312500	-46.130241
2821.289062	-47.148937
2822.265625	-46.570831
2823.242188	-46.703106
2824.218750	-46.279083
2825.195312	-46.718666
2826.171875	-47.241901
2827.148438	-47.034813
2828.125000	-46.870667
2829.101562	-46.935863
2830.078125	-47.211273
2831.054688	-47.556091
2832.031250	-47.418545
2833.007812	-46.532806
2833.984375	-47.464958
2834.960938	-46.611866
2835.937500	-46.883656
2836.914062	-46.606190
2837.890625	-46.341648
2838.867188	-46.911545
2839.843750	-46.729671
2840.820312	-46.952915
2841.796875	-46.647564
2842.773438	-47.506626
2843.750000	-46.428612
2844.726562	-47.236229
2845.703125	-47.003689
2846.679688	-46.486656
2847.656250	-47.056305
2848.632812	-47.476250
2849.609375	-46.940704
2850.585938	-47.876472
2851.562500	-46.045345
2852.539062	-46.487698
2853.515625	-46.874012
2854.492188	-46.398331
2855.468750	-45.993771
2856.445312	-46.605930
2857.421875	-47.119686
2858.398438	-46.842690
2859.375000	-46.985832
2860.351562	-46.499485
2861.328125	-46.817566
2862.304688	-46.575562
2863.281250	-46.653671
2864.257812	-47.271912
2865.234375	-46.978859
2866.210938	-47.193161
2867.187500	-46.606339
2868.164062	-46.735630
2869.140625	-46.954273
2870.117188	-46.800667
2871.093750	-46.532742
2872.070312	-47.337460
2873.046875	-47.273823
2874.023438	-47.232029
2875.000000	-47.020012
2875.976562	-47.081478
2876.953125	-47.215302
2877.929688	-46.905403
2878.906250	-47.085579
2879.882812	-46.851048
2880.859375	-46.649384
2881.835938	-47.358490
2882.812500	-47.119030
2883.789062	-46.991169
2884.765625	-46.906368
2885.742188	-46.810993
2886.718750	-46.977341
2887.695312	-46.312305
2888.671875	-46.659718
2889.648438	-47.324108
2890.625000	-47.798599
2891.601562	-46.888157
2892.578125	-47.729038
2893.554688	-47.657253
2894.531250	-46.883980
2895.507812	-46.372265
2896.484375	-47.123440
2897.460938	-46.904915
2898.437500	-46.388508
2899.414062	-47.091511
2900.390625	-46.849903
2901.367188	-46.841579
2902.343750	-46.306797
2903.320312	-46.612915
2904.296875	-47.232395
2905.273438	-46.539265
2906.250000	-46.877777
2907.226562	-46.770027
2908.203125	-47.157829
2909.179688	-47.717907
2910.156250	-47.940628
2911.132812	-47.360447
2912.109375	-46.850994
2913.085938	-47.314796
2914.062500	-46.220154
2915.039062	-47.083042
2916.015625	-47.233418
2916.992188	-47.238270
2917.968750	-46.958744
2918.945312	-47.226055
2919.921875	-46.456532
2920.898438	-46.982464
2921.875000	-46.726219
2922.851562	-45.980228
2923.828125	-47.410336
2924.804688	-47.055637
2925.781250	-46.378319
2926.757812	-47.446457
2927.734375	-47.162403
2928.710938	-47.268204
2929.687500	-46.638317
2930.664062	-46.550823
2931.640625	-47.192101
2932.617188	-46.941025
2933.593750	-46.610382
2934.570312	-46.337677
2935.546875	-47.351967
2936.523438	-47.346893
2937.500000	-47.084705
2938.476562	-46.614231
2939.453125	-46.711788
2940.429688	-47.952084
2941.406250	-46.732090
2942.382812	-46.617695
2943.359375	-47.217751
2944.335938	-46.991737
2945.312500	-46.979511
2946.289062	-46.939842
2947.265625	-46.697163
2948.242188	-47.125954
2949.218750	-46.530113
2950.195312	-46.862396
2951.171875	-47.062107
2952.148438	-47.045414
2953.125000	-47.284138
2954.101562	-47.284134
2955.078125	-46.839516
2956.054688	-46.896782
2957.031250	-46.225536
2958.007812	-46.968792
2958.984375	-46.928585
2959.960938	-47.279385
2960.937500	-46.779797
2961.914062	-46.630836
2962.890625	-46.853813
2963.867188	-46.732899
2964.843750	-47.510834
2965.820312	-46.588692
2966.796875	-47.385719
2967.773438	-46.647205
2968.750000	-46.166302
2969.726562	-46.656246
2970.703125	-46.645508
2971.679688	-47.100872
2972.656250	-46.602303
2973.632812	-47.628471
2974.609375	-47.464085
2975.585938	-47.689495
2976.562500	-46.765114
2977.539062	-46.821762
2978.515625	-46.619644
2979.492188	-46.972061
2980.468750	-46.392269
2981.445312	-47.064259
2982.421875	-47.386105
2983.398438	-46.906296
2984.375000	-46.613079
2985.351562	-46.921215
2986.328125	-47.042068
2987.304688	-47.247505
2988.281250	-46.905731
2989.257812	-47.398220
2990.234375	-46.864799
2991.210938	-45.981483
2992.187500	-46.499680
2993.164062	-47.239140
2994.140625	-47.173584
2995.117188	-46.612179
2996.093750	-46.999744
2997.070312	-46.579231
2998.046875	-47.415047
2999.023438	-46.166458
3000.000000	-45.991184
3000.976562	-47.195633
3001.953125	-47.141403
3002.929688	-47.152370
3003.906250	-47.188984
3004.882812	-47.218288
3005.859375	-46.566105
3006.835938	-46.817616
3007.812500	-46.707630
3008.789062	-46.464760
3009.765625	-47.603474
3010.742188	-46.477959
3011.718750	-47.173492
3012.695312	-47.040073
3013.671875	-46.494915
3014.648438	-47.555264
3015.625000	-47.213642
3016.601562	-47.814285
3017.578125	-46.599518
3018.554688	-46.451759
3019.531250	-46.839428
3020.507812	-46.829899
3021.484375	-46.584484
3022.460938	-47.192551
3023.437500	-46.710068
3024.414062	-47.509678
3025.390625	-47.587864
3026.367188	-46.749004
3027.343750	-47.721275
3028.320312	-47.017101
3029.296875	-47.330372
3030.273438	-47.965157
3031.250000	-47.334572
3032.226562	-46.744045
3033.203125	-47.421768
3034.179688	-47.055943
3035.156250	-46.898502
3036.132812	-46.800274
3037.109375	-46.576824
3038.085938	-47.331055
3039.062500	-46.798458
3040.039062	-46.902851
3041.015625	-46.609108
3041.992188	-46.693424
3042.968750	-47.242073
3043.945312	-46.533768
3044.921875	-47.093117
3045.898438	-47.096504
3046.875000	-47.006351
3047.851562	-46.204998
3048.828125	-47.056988
3049.804688	-46.582050
3050.781250	-46.691040
3051.757812	-46.532925
3052.734375	-46.476059
3053.710938	-46.200268
3054.687500	-46.998688
3055.664062	-47.586788
3056.640625	-47.218887
3057.617188	-47.008106
3058.593750	-47.217194
3059.570312	-46.900158
3060.546875	-47.208450
3061.523438	-46.998734
3062.500000	-46.956272
3063.476562	-47.173405
3064.453125	-46.664852
3065.429688	-46.760471
3066.406250	-47.494251
3067.382812	-47.024513
3068.359375	-46.286987
3069.335938	-47.175194
3070.312500	-47.539127
3071.289062	-47.065247
3072.265625	-46.412029
3073.242188	-46.484951
3074.218750	-47.058331
3075.195312	-46.709465
3076.171875	-46.714958
3077.148438	-46.057068
3078.125000	-46.640644
3079.101562	-46.717575
3080.078125	-46.495045
3081.054688	-46.701973
3082.031250	-46.550465
3083.007812	-46.643291
3083.984375	-47.692776
3084.960938	-46.940754
3085.937500	-46.526112
3086.914062	-47.110786
3087.890625	-46.447960
3088.867188	-47.016174
3089.843750	-47.293835
3090.820312	-47.316120
3091.796875	-46.959782
3092.773438	-46.627922
3093.750000	-47.086117
3094.726562	-46.610180
3095.703125	-46.780243
3096.679688	-46.697243
3097.656250	-47.027081
3098.632812	-47.443283
3099.609375	-47.054958
3100.585938	-46.649822
3101.562500	-47.088829
3102.539062	-47.395962
3103.515625	-47.746536
3104.492188	-46.482803
3105.468750	-46.650574
3106.445312	-47.234135
3107.421875	-46.556572
3108.398438	-47.061039
3109.375000	-46.961998
3110.351562	-46.880970
3111.328125	-46.701481
3112.304688	-47.259171
3113.281250	-46.526600
3114.257812	-46.849354
3115.234375	-46.902840
3116.210938	-47.439651
3117.187500	-46.436314
3118.164062	-47.465687
3119.140625	-47.543247
3120.117188	-46.595257
3121.093750	-47.016487
3122.070312	-47.180702
3123.046875	-47.180241
3124.023438	-47.471317
3125.000000	-46.931747
3125.976562	-46.661533
3126.953125	-47.822418
3127.929688	-46.658878
3128.906250	-46.908554
3129.882812	-46.675373
3130.859375	-46.507687
3131.835938	-47.735199
3132.812500	-46.853745
3133.789062	-46.995914
3134.765625	-46.859398
3135.742188	-47.098816
3136.718750	-47.459057
3137.695312	-47.437057
3138.671875	-46.469410
3139.648438	-47.475422
3140.625000	-46.690678
3141.601562	-46.608932
3142.578125	-46.881886
3143.554688	-46.529026
3144.531250	-47.132107
3145.507812	-47.259258
3146.484375	-47.282852
3147.460938	-47.165054
3148.437500	-46.825207
3149.414062	-46.249420
3150.390625	-46.663956
3151.367188	-46.635578
3152.343750	-46.714264
3153.320312	-47.200367
3154.296875	-47.010151
3155.273438	-47.015228
3156.250000	-47.726810
3157.226562	-47.205475
3158.203125	-46.403786
3159.179688	-47.104736
3160.156250	-47.698059
3161.132812	-47.540794
3162.109375	-47.097172
3163.085938	-47.153107
3164.062500	-47.045868
3165.039062	-47.078598
3166.015625	-46.133308
3166.992188	-45.863632
3167.968750	-46.732662
3168.945312	-46.909050
3169.921875	-46.694736
3170.898438	-47.186745
3171.875000	-46.634365
3172.851562	-46.834209
3173.828125	-47.203800
3174.804688	-47.360443
3175.781250	-46.654690
3176.757812	-47.225632
3177.734375	-47.351257
3178.710938	-46.848366
3179.687500	-47.384621
3180.664062	-47.151814
3181.640625	-46.716877
3182.617188	-46.868660
3183.593750	-47.551670
3184.570312	-46.575901
3185.546875	-46.607018
3186.523438	-47.369934
3187.500000	-46.954620
3188.476562	-47.126148
3189.453125	-47.282536
3190.429688	-48.176926
3191.406250	-47.053726
3192.382812	-46.909752
3193.359375	-46.407234
3194.335938	-45.861336
3195.312500	-46.887009
3196.289062	-46.478775
3197.265625	-47.235859
3198.242188	-47.198807
3199.218750	-47.642948
3200.195312	-46.783062
3201.171875	-47.046589
3202.148438	-46.780975
3203.125000	-47.549438
3204.101562	-46.975079
3205.078125	-46.350327
3206.054688	-46.307766
3207.031250	-46.925476
3208.007812	-47.949097
3208.984375	-46.691463
3209.960938	-46.525127
3210.937500	-46.565342
3211.914062	-46.813465
3212.890625	-47.438438
3213.867188	-47.077080
3214.843750	-47.221535
3215.820312	-47.545403
3216.796875	-47.156727
3217.773438	-46.966507
3218.750000	-46.981075
3219.726562	-46.999760
3220.703125	-46.270512
3221.679688	-46.499443
3222.656250	-46.859947
3223.632812	-46.547585
3224.609375	-47.042549
3225.585938	-46.191040
3226.562500	-47.139778
3227.539062	-46.377388
3228.515625	-46.818291
3229.492188	-46.964706
3230.468750	-46.820705
3231.445312	-47.252041
3232.421875	-47.246651
3233.398438	-47.381016
3234.375000	-47.471653
3235.351562	-46.299969
3236.328125	-47.445396
3237.304688	-47.297409
3238.281250	-47.124325
3239.257812	-47.202118
3240.234375	-47.364395
3241.210938	-46.852257
3242.187500	-46.494015
3243.164062	-47.010868
3244.140625	-46.577194
3245.117188	-46.886440
3246.093750	-46.439110
3247.070312	-46.966599
3248.046875	-46.994987
3249.023438	-46.647686
3250.000000	-46.674850
3250.976562	-46.393532
3251.953125	-46.828442
3252.929688	-47.137440
3253.906250	-47.320587
3254.882812	-47.290020
3255.859375	-46.778141
3256.835938	-47.246162
3257.812500	-47.431633
3258.789062	-46.812111
3259.765625	-46.526360
3260.742188	-47.483440
3261.718750	-45.948303
3262.695312	-46.870903
3263.671875	-47.156441
3264.648438	-47.095516
3265.625000	-46.756237
3266.601562	-46.438343
3267.578125	-47.051060
3268.554688	-47.760143
3269.531250	-47.942181
3270.507812	-46.986458
3271.484375	-46.935852
3272.460938	-47.581165
3273.437500	-46.841679
3274.414062	-47.532486
3275.390625	-47.549217
3276.367188	-47.704720
3277.343750	-47.055199
3278.320312	-47.194901
3279.296875	-46.359528
3280.273438	-46.774361
3281.250000	-47.654247
3282.226562	-47.250324
3283.203125	-47.623470
3284.179688	-47.154568
3285.156250	-46.827709
3286.132812	-47.276272
3287.109375	-47.703529
3288.085938	-47.665348
3289.062500	-47.463963
3290.039062	-47.037113
3291.015625	-47.293129
3291.992188	-46.583561
3292.968750	-47.585190
3293.945312	-47.388058
3294.921875	-47.226238
3295.898438	-47.318260
3296.875000	-48.198681
3297.851562	-46.769257
3298.828125	-46.323208
3299.804688	-47.181313
3300.781250	-46.404335
3301.757812	-47.971275
3302.734375	-47.486317
3303.710938	-47.258656
3304.687500	-46.422573
3305.664062	-47.121288
3306.640625	-46.769215
3307.617188	-47.593636
3308.593750	-47.262905
3309.570312	-47.245068
3310.546875	-46.966194
3311.523438	-46.260357
3312.500000	-47.281773
3313.476562	-46.266228
3314.453125	-46.671383
3315.429688	-46.993328
3316.406250	-47.042873
3317.382812	-47.244732
3318.359375	-46.910877
3319.335938	-46.987644
3320.312500	-46.046825
3321.289062	-46.806370
3322.265625	-47.182213
3323.242188	-46.958843
3324.218750	-46.454048
3325.195312	-47.519352
3326.171875	-47.506226
3327.148438	-46.930904
3328.125000	-46.933529
3329.101562	-47.101845
3330.078125	-46.729362
3331.054688	-47.595707
3332.031250	-47.264038
3333.007812	-47.511730
3333.984375	-46.503750
3334.960938	-46.204361
3335.937500	-47.315289
3336.914062	-46.849854
3337.890625	-46.481197
3338.867188	-46.906517
3339.843750	-46.936081
3340.820312	-47.240414
3341.796875	-47.201363
3342.773438	-46.665516
3343.750000	-47.524822
3344.726562	-46.487644
3345.703125	-47.580833
3346.679688	-47.130020
3347.656250	-46.821873
3348.632812	-46.821678
3349.609375	-46.425255
3350.585938	-47.008400
3351.562500	-47.093063
3352.539062	-47.417809
3353.515625	-47.507622
3354.492188	-47.007984
3355.468750	-47.553360
3356.445312	-47.521160
3357.421875	-46.746887
3358.398438	-47.170071
3359.375000	-47.072384
3360.351562	-46.274445
3361.328125	-46.801502
3362.304688	-46.686543
3363.281250	-46.477261
3364.257812	-47.633682
3365.234375	-47.074551
3366.210938	-46.994938
3367.187500	-47.819836
3368.164062	-46.348141
3369.140625	-47.343655
3370.117188	-47.546326
3371.093750	-47.148144
3372.070312	-47.138569
3373.046875	-46.132145
3374.023438	-46.746811
3375.000000	-46.854099
3375.976562	-46.297104
3376.953125	-46.485470
3377.929688	-46.619793
3378.906250	-46.939278
3379.882812	-47.170979
3380.859375	-47.089542
3381.835938	-47.344746
3382.812500	-46.655064
3383.789062	-47.152485
3384.765625	-47.557178
3385.742188	-47.493790
3386.718750	-46.663280
3387.695312	-47.252514
3388.671875	-47.055279
3389.648438	-46.661770
3390.625000	-47.539490
3391.601562	-47.139191
3392.578125	-46.990910
3393.554688	-46.770611
3394.531250	-47.166889
3395.507812	-47.208515
3396.484375	-47.416328
3397.460938	-47.024410
3398.437500	-47.118065
3399.414062	-47.447983
3400.390625	-46.786774
3401.367188	-47.057941
3402.343750	-47.447151
3403.320312	-47.302135
3404.296875	-47.023655
3405.273438	-47.024307
3406.250000	-47.219627
3407.226562	-46.898060
3408.203125	-47.944656
3409.179688	-46.700523
3410.156250	-46.686344
3411.132812	-47.308010
3412.109375	-47.175816
3413.085938	-46.631653
3414.062500	-46.614708
3415.039062	-46.884354
3416.015625	-46.944195
3416.992188	-47.724552
3417.968750	-47.093323
3418.945312	-46.562569
3419.921875	-46.651817
3420.898438	-47.593613
3421.875000	-47.022762
3422.851562	-46.972084
3423.828125	-46.861179
3424.804688	-46.234928
3425.781250	-46.980526
3426.757812	-47.044033
3427.734375	-46.817608
3428.710938	-46.756458
3429.687500	-46.701527
3430.664062	-46.357296
3431.640625	-47.408638
3432.617188	-47.219292
3433.593750	-47.173706
3434.570312	-47.585167
3435.546875	-46.494766
3436.523438	-46.580082
3437.500000	-47.241112
3438.476562	-46.376453
3439.453125	-46.927681
3440.429688	-47.273682
3441.406250	-46.235371
3442.382812	-46.969204
3443.359375	-46.404305
3444.335938	-46.124287
3445.312500	-46.767254
3446.289062	-46.773312
3447.265625	-46.738148
3448.242188	-46.864017
3449.218750	-46.672775
3450.195312	-46.919460
3451.171875	-47.619205
3452.148438	-47.156300
3453.125000	-46.606010
3454.101562	-47.720470
3455.078125	-46.790104
3456.054688	-47.004959
3457.031250	-46.618698
3458.007812	-46.810764
3458.984375	-46.988304
3459.960938	-47.155266
3460.937500	-47.008572
3461.914062	-47.775433
3462.890625	-46.786449
3463.867188	-47.510078
3464.843750	-47.511101
3465.820312	-47.606144
3466.796875	-47.075787
3467.773438	-46.928047
3468.750000	-47.001221
3469.726562	-47.112282
3470.703125	-46.411232
3471.679688	-46.433422
3472.656250	-47.423054
3473.632812	-46.707130
3474.609375	-46.751858
3475.585938	-46.889004
3476.562500	-46.977821
3477.539062	-46.216057
3478.515625	-46.652355
3479.492188	-46.858456
3480.468750	-46.563900
3481.445312	-47.567200
3482.421875	-47.418236
3483.398438	-46.416660
3484.375000	-46.590611
3485.351562	-46.998905
3486.328125	-47.528088
3487.304688	-47.011150
3488.281250	-46.770687
3489.257812	-47.566784
3490.234375	-47.072697
3491.210938	-46.833702
3492.187500	-46.717995
3493.164062	-47.007915
3494.140625	-46.806023
3495.117188	-46.825699
3496.093750	-46.927521
3497.070312	-46.542278
3498.046875	-47.434124
3499.023438	-47.009483
3500.000000	-46.785782
3500.976562	-47.377151
3501.953125	-46.432232
3502.929688	-46.944389
3503.906250	-46.927109
3504.882812	-46.883347
3505.859375	-47.373459
3506.835938	-46.790257
3507.812500	-46.152706
3508.789062	-46.372570
3509.765625	-46.265911
3510.742188	-45.892868
3511.718750	-47.218056
3512.695312	-47.346069
3513.671875	-46.751713
3514.648438	-48.251709
3515.625000	-46.263786
3516.601562	-47.349339
3517.578125	-47.055458
3518.554688	-46.386776
3519.531250	-47.270359
3520.507812	-46.708714
3521.484375	-47.140354
3522.460938	-46.299911
3523.437500	-46.416298
3524.414062	-46.568611
3525.390625	-47.570141
3526.367188	-46.918045
3527.343750	-46.491226
3528.320312	-46.180286
3529.296875	-46.707012
3530.273438	-47.119774
3531.250000	-46.426567
3532.226562	-46.665649
3533.203125	-47.063889
3534.179688	-46.898800
3535.156250	-46.974030
3536.132812	-47.067371
3537.109375	-47.451607
3538.085938	-47.431515
3539.062500	-46.136040
3540.039062	-46.788319
3541.015625	-46.561710
3541.992188	-46.783699
3542.968750	-46.963947
3543.945312	-47.592262
3544.921875	-47.373081
3545.898438	-46.725761
3546.875000	-46.414543
3547.851562	-46.862026
3548.828125	-46.851997
3549.804688	-46.983406
3550.781250	-46.862999
3551.757812	-47.307400
3552.734375	-46.893456
3553.710938	-47.125099
3554.687500	-47.009586
3555.664062	-47.837391
3556.640625	-47.778725
3557.617188	-46.988750
3558.593750	-46.567444
3559.570312	-46.645985
3560.546875	-46.553795
3561.523438	-46.427059
3562.500000	-46.829826
3563.476562	-47.156487
3564.453125	-46.482330
3565.429688	-47.268547
3566.406250	-47.186413
3567.382812	-46.798084
3568.359375	-46.440727
3569.335938	-46.572353
3570.312500	-47.208862
3571.289062	-46.994186
3572.265625	-46.420185
3573.242188	-46.733086
3574.218750	-47.131981
3575.195312	-46.947739
3576.171875	-46.662266
3577.148438	-46.598854
3578.125000	-46.908932
3579.101562	-47.054478
3580.078125	-47.264694
3581.054688	-47.062878
3582.031250	-47.632637
3583.007812	-47.399570
3583.984375	-47.570248
3584.960938	-46.321747
3585.937500	-46.179035
3586.914062	-47.937855
3587.890625	-47.699436
3588.867188	-46.381676
3589.843750	-46.626019
3590.820312	-46.814320
3591.796875	-46.739113
3592.773438	-46.930511
3593.750000	-46.759636
3594.726562	-47.237434
3595.703125	-47.336197
3596.679688	-47.367874
3597.656250	-46.724430
3598.632812	-46.531136
3599.609375	-47.100918
3600.585938	-46.994007
3601.562500	-47.058437
3602.539062	-46.620399
3603.515625	-47.768940
3604.492188	-46.517139
3605.468750	-46.598984
3606.445312	-46.550064
3607.421875	-46.878040
3608.398438	-47.065701
3609.375000	-47.312622
3610.351562	-46.602192
3611.328125	-47.296238
3612.304688	-46.812927
3613.281250	-47.075195
3614.257812	-46.535690
3615.234375	-46.670437
3616.210938	-47.198570
3617.187500	-46.817890
3618.164062	-46.387653
3619.140625	-46.310841
3620.117188	-46.392498
3621.093750	-47.417007
3622.070312	-47.714996
3623.046875	-46.837490
3624.023438	-46.726978
3625.000000	-46.883804
3625.976562	-46.637150
3626.953125	-47.341766
3627.929688	-47.490337
3628.906250	-47.539318
3629.882812	-47.670856
3630.859375	-47.246868
3631.835938	-47.425358
3632.812500	-46.518902
3633.789062	-47.244526
3634.765625	-47.743496
3635.742188	-47.255222
3636.718750	-46.780239
3637.695312	-47.674236
3638.671875	-47.494381
3639.648438	-47.865303
3640.625000	-47.652336
3641.601562	-47.029106
3642.578125	-47.238064
3643.554688	-46.694397
3644.531250	-46.934139
3645.507812	-47.819489
3646.484375	-47.327492
3647.460938	-47.457489
3648.437500	-47.783180
3649.414062	-48.101906
3650.390625	-47.406532
3651.367188	-47.421902
3652.343750	-46.968815
3653.320312	-47.099701
3654.296875	-46.149147
3655.273438	-46.271709
3656.250000	-46.536812
3657.226562	-46.888386
3658.203125	-46.876095
3659.179688	-46.618591
3660.156250	-46.866501
3661.132812	-46.529297
3662.109375	-47.011574
3663.085938	-47.536415
3664.062500	-47.006866
3665.039062	-47.197174
3666.015625	-47.102520
3666.992188	-46.847389
3667.968750	-46.586628
3668.945312	-46.865456
3669.921875	-46.440121
3670.898438	-46.598503
3671.875000	-46.992298
3672.851562	-46.688011
3673.828125	-47.190903
3674.804688	-47.392960
3675.781250	-47.436604
3676.757812	-47.589092
3677.734375	-47.409046
3678.710938	-46.670841
3679.687500	-46.734818
3680.664062	-46.778713
3681.640625	-46.764271
3682.617188	-47.065205
3683.593750	-46.469250
3684.570312	-47.268368
3685.546875	-47.169666
3686.523438	-46.579903
3687.500000	-47.210602
3688.476562	-46.642574
3689.453125	-46.242996
3690.429688	-46.318268
3691.406250	-47.259830
3692.382812	-46.775089
3693.359375	-46.948433
3694.335938	-47.741039
3695.312500	-46.912090
3696.289062	-47.107765
3697.265625	-47.075138
3698.242188	-47.178310
3699.218750	-46.801960
3700.195312	-47.491623
3701.171875	-47.263695
3702.148438	-47.149757
3703.125000	-47.126945
3704.101562	-46.703957
3705.078125	-46.103142
3706.054688	-46.482643
3707.031250	-47.397430
3708.007812	-47.134212
3708.984375	-46.322392
3709.960938	-47.460670
3710.937500	-47.090809
3711.914062	-46.129940
3712.890625	-46.525402
3713.867188	-46.761295
3714.843750	-46.948109
3715.820312	-46.500443
3716.796875	-47.146782
3717.773438	-47.651360
3718.750000	-47.092354
3719.726562	-47.369919
3720.703125	-46.816624
3721.679688	-46.938950
3722.656250	-47.326077
3723.632812	-46.988369
3724.609375	-47.194492
3725.585938	-47.166454
3726.562500	-47.095490
3727.539062	-47.404732
3728.515625	-46.311119
3729.492188	-47.093632
3730.468750	-46.851414
3731.445312	-46.254593
3732.421875	-47.414513
3733.398438	-46.538288
3734.375000	-47.587914
3735.351562	-46.835049
3736.328125	-47.192104
3737.304688	-46.551620
3738.281250	-47.210407
3739.257812	-46.554699
3740.234375	-46.472240
3741.210938	-46.343620
3742.187500	-46.416962
3743.164062	-46.502350
3744.140625	-46.708344
3745.117188	-47.121067
3746.093750	-47.398968
3747.070312	-47.510696
3748.046875	-47.397270
3749.023438	-47.231186
3750.000000	-47.362400
3750.976562	-47.394989
3751.953125	-47.294136
3752.929688	-47.088581
3753.906250	-46.940296
3754.882812	-46.841446
3755.859375	-46.950481
3756.835938	-46.962318
3757.812500	-47.078827
3758.789062	-47.276150
3759.765625	-46.286064
3760.742188	-46.870991
3761.718750	-46.196918
3762.695312	-46.497444
3763.671875	-47.218357
3764.648438	-45.806190
3765.625000	-46.598072
3766.601562	-46.565868
3767.578125	-47.075520
3768.554688	-46.869904
3769.531250	-46.916027
3770.507812	-47.064445
3771.484375	-47.018032
3772.460938	-46.443264
3773.437500	-47.005711
3774.414062	-46.710297
3775.390625	-46.840599
3776.367188	-46.920757
3777.343750	-46.427177
3778.320312	-46.912598
3779.296875	-46.033352
3780.273438	-46.639782
3781.250000	-46.976696
3782.226562	-47.944908
3783.203125	-47.390442
3784.179688	-46.117367
3785.156250	-47.037285
3786.132812	-46.826340
3787.109375	-46.577572
3788.085938	-47.362556
3789.062500	-47.342163
3790.039062	-46.387844
3791.015625	-47.086464
3791.992188	-46.542393
3792.968750	-46.592468
3793.945312	-46.789120
3794.921875	-47.675049
3795.898438	-47.549141
3796.875000	-46.902668
3797.851562	-47.187862
3798.828125	-46.540485
3799.804688	-47.248413
3800.781250	-47.048866
3801.757812	-46.818226
3802.734375	-47.000980
3803.710938	-46.948818
3804.687500	-46.056435
3805.664062	-47.311958
3806.640625	-46.651386
3807.617188	-46.916832
3808.593750	-47.250755
3809.570312	-47.533031
3810.546875	-46.478596
3811.523438	-47.028721
3812.500000	-46.763725
3813.476562	-46.991207
3814.453125	-46.116913
3815.429688	-47.284981
3816.406250	-46.673721
3817.382812	-46.508644
3818.359375	-46.587635
3819.335938	-46.594189
3820.312500	-47.288239
3821.289062	-48.013798
3822.265625	-47.818684
3823.242188	-47.002716
3824.218750	-46.537788
3825.195312	-47.273758
3826.171875	-47.070362
3827.148438	-46.198803
3828.125000	-47.016773
3829.101562	-47.827232
3830.078125	-48.036713
3831.054688	-47.602741
3832.031250	-47.573624
3833.007812	-47.257877
3833.984375	-47.946255
3834.960938	-46.599010
3835.937500	-46.926010
3836.914062	-47.147602
3837.890625	-46.647102
3838.867188	-46.352898
3839.843750	-47.240360
3840.820312	-46.692333
3841.796875	-47.100937
3842.773438	-46.653469
3843.750000	-47.401875
3844.726562	-47.128803
3845.703125	-47.521759
3846.679688	-47.241776
3847.656250	-47.276157
3848.632812	-46.619045
3849.609375	-46.632168
3850.585938	-46.120998
3851.562500	-46.353783
3852.539062	-47.012268
3853.515625	-46.706249
3854.492188	-46.623184
3855.468750	-46.730774
3856.445312	-47.143341
3857.421875	-47.146606
3858.398438	-47.289352
3859.375000	-47.099655
3860.351562	-46.252682
3861.328125	-46.740238
3862.304688	-46.416485
3863.281250	-47.621361
3864.257812	-47.131279
3865.234375	-47.057487
3866.210938	-46.409920
3867.187500	-47.042625
3868.164062	-47.262424
3869.140625	-46.523754
3870.117188	-46.156067
3871.093750	-46.118038
3872.070312	-47.122051
3873.046875	-47.318680
3874.023438	-46.602150
3875.000000	-46.905308
3875.976562	-46.764633
3876.953125	-47.311226
3877.929688	-47.113338
3878.906250	-47.332520
3879.882812	-47.276157
3880.859375	-48.145535
3881.835938	-47.412003
3882.812500	-47.642437
3883.789062	-47.362400
3884.765625	-47.258751
3885.742188	-46.314980
3886.718750	-46.705494
3887.695312	-46.514187
3888.671875	-46.929024
3889.648438	-46.227901
3890.625000	-46.330776
3891.601562	-47.076401
3892.578125	-47.656609
3893.554688	-47.659008
3894.531250	-47.071236
3895.507812	-46.626232
3896.484375	-47.576756
3897.460938	-47.212574
3898.437500	-46.761124
3899.414062	-47.283104
3900.390625	-47.150234
3901.367188	-47.345005
3902.343750	-47.131374
3903.320312	-47.898247
3904.296875	-47.547184
3905.273438	-47.497200
3906.250000	-47.647732
3907.226562	-46.505241
3908.203125	-46.930691
3909.179688	-46.957062
3910.156250	-47.016041
3911.132812	-46.878151
3912.109375	-46.963898
3913.085938	-47.563961
3914.062500	-46.939991
3915.039062	-47.552876
3916.015625	-46.261150
3916.992188	-46.610813
3917.968750	-46.229603
3918.945312	-47.123203
3919.921875	-47.283821
3920.898438	-46.108269
3921.875000	-46.826935
3922.851562	-46.975159
3923.828125	-46.636120
3924.804688	-46.353672
3925.781250	-46.090973
3926.757812	-46.693531
3927.734375	-46.806652
3928.710938	-47.027767
3929.687500	-47.901073
3930.664062	-47.820953
3931.640625	-47.668407
3932.617188	-46.032055
3933.593750	-46.747517
3934.570312	-46.780422
3935.546875	-46.696136
3936.523438	-46.449738
3937.500000	-47.039665
3938.476562	-47.198025
3939.453125	-47.334583
3940.429688	-47.311211
3941.406250	-47.534855
3942.382812	-47.212391
3943.359375	-46.757122
3944.335938	-47.309490
3945.312500	-46.780556
3946.289062	-47.017212
3947.265625	-46.798115
3948.242188	-47.163219
3949.218750	-46.402012
3950.195312	-46.738064
3951.171875	-46.365112
3952.148438	-46.420013
3953.125000	-47.747314
3954.101562	-47.139889
3955.078125	-46.424725
3956.054688	-47.021641
3957.031250	-47.512234
3958.007812	-46.777813
3958.984375	-46.444584
3959.960938	-46.853931
3960.937500	-47.175804
3961.914062	-46.695839
3962.890625	-46.590065
3963.867188	-46.328831
3964.843750	-47.229313
3965.820312	-47.192459
3966.796875	-46.344028
3967.773438	-46.121201
3968.750000	-47.058681
3969.726562	-46.792248
3970.703125	-47.259846
3971.679688	-47.333656
3972.656250	-46.629074
3973.632812	-46.557590
3974.609375	-48.374805
3975.585938	-46.742977
3976.562500	-46.763252
3977.539062	-46.792774
3978.515625	-46.733574
3979.492188	-46.579277
3980.468750	-47.009918
3981.445312	-47.231403
3982.421875	-47.289612
3983.398438	-46.985306
3984.375000	-46.868900
3985.351562	-46.912979
3986.328125	-47.158295
3987.304688	-47.020554
3988.281250	-46.635590
3989.257812	-46.841640
3990.234375	-46.756771
3991.210938	-46.281555
3992.187500	-46.024357
3993.164062	-47.082733
3994.140625	-46.767490
3995.117188	-47.139629
3996.093750	-47.120335
3997.070312	-46.932728
3998.046875	-46.672951
3999.023438	-46.598965
4000.000000	-47.106499
4000.976562	-46.946011
4001.953125	-46.875137
4002.929688	-47.110188
4003.906250	-47.399815
4004.882812	-47.612526
4005.859375	-46.377644
4006.835938	-46.760582
4007.812500	-47.404854
4008.789062	-47.311394
4009.765625	-46.814659
4010.742188	-46.731583
4011.718750	-47.534866
4012.695312	-46.519203
4013.671875	-47.048534
4014.648438	-47.202950
4015.625000	-46.752247
4016.601562	-46.696152
4017.578125	-46.999699
4018.554688	-46.783527
4019.531250	-46.792603
4020.507812	-46.569210
4021.484375	-46.841591
4022.460938	-47.002510
4023.437500	-47.219078
4024.414062	-46.721622
4025.390625	-46.626499
4026.367188	-46.539772
4027.343750	-46.863567
4028.320312	-47.048431
4029.296875	-46.428246
4030.273438	-47.768879
4031.250000	-46.230473
4032.226562	-46.884148
4033.203125	-47.327286
4034.179688	-47.063225
4035.156250	-46.438927
4036.132812	-47.425926
4037.109375	-45.734394
4038.085938	-46.570576
4039.062500	-47.089493
4040.039062	-47.450134
4041.015625	-47.164761
4041.992188	-47.050686
4042.968750	-47.736191
4043.945312	-46.642147
4044.921875	-46.625072
4045.898438	-46.663837
4046.875000	-47.013580
4047.851562	-47.075478
4048.828125	-46.379158
4049.804688	-46.517998
4050.781250	-45.899158
4051.757812	-47.010746
4052.734375	-46.008564
4053.710938	-46.290920
4054.687500	-46.787514
4055.664062	-47.056019
4056.640625	-46.570820
4057.617188	-46.860847
4058.593750	-46.571735
4059.570312	-47.325535
4060.546875	-47.424740
4061.523438	-47.391174
4062.500000	-46.868027
4063.476562	-47.295479
4064.453125	-46.896236
4065.429688	-46.932926
4066.406250	-47.846779
4067.382812	-47.223785
4068.359375	-46.750172
4069.335938	-47.491657
4070.312500	-46.991982
4071.289062	-46.697083
4072.265625	-47.387501
4073.242188	-46.654373
4074.218750	-46.727119
4075.195312	-46.577724
4076.171875	-46.983620
4077.148438	-47.289349
4078.125000	-46.338295
4079.101562	-46.752834
4080.078125	-46.963989
4081.054688	-46.464184
4082.031250	-46.935108
4083.007812	-46.282982
4083.984375	-47.308647
4084.960938	-47.098537
4085.937500	-46.323219
4086.914062	-46.950169
4087.890625	-47.550186
4088.867188	-47.183067
4089.843750	-46.654007
4090.820312	-46.799450
4091.796875	-47.063766
4092.773438	-46.278137
4093.750000	-47.373623
4094.726562	-46.693642
4095.703125	-46.359756
4096.679688	-46.460690
4097.656250	-47.070717
4098.632812	-46.931400
4099.609375	-46.598476
4100.585938	-46.659679
4101.562500	-46.819702
4102.539062	-47.278786
4103.515625	-47.127266
4104.492188	-46.488365
4105.468750	-46.882397
4106.445312	-47.298985
4107.421875	-46.948383
4108.398438	-46.934483
4109.375000	-46.777531
4110.351562	-46.638958
4111.328125	-46.871101
4112.304688	-46.971897
4113.281250	-46.427765
4114.257812	-46.829052
4115.234375	-46.727211
4116.210938	-46.845695
4117.187500	-46.797955
4118.164062	-46.751274
4119.140625	-46.598202
4120.117188	-46.809345
4121.093750	-47.002380
4122.070312	-46.327991
4123.046875	-46.895218
4124.023438	-47.297836
4125.000000	-47.083412
4125.976562	-46.420391
4126.953125	-47.510082
4127.929688	-47.106384
4128.906250	-46.929646
4129.882812	-47.293198
4130.859375	-47.455730
4131.835938	-47.441006
4132.812500	-46.895546
4133.789062	-46.955509
4134.765625	-47.260155
4135.742188	-47.457676
4136.718750	-47.384602
4137.695312	-46.702080
4138.671875	-47.368946
4139.648438	-47.030735
4140.625000	-46.929562
4141.601562	-46.976498
4142.578125	-47.307564
4143.554688	-46.573051
4144.531250	-46.868099
4145.507812	-46.563686
4146.484375	-47.626259
4147.460938	-47.388214
4148.437500	-46.928383
4149.414062	-46.570637
4150.390625	-47.034481
4151.367188	-46.800327
4152.343750	-46.615028
4153.320312	-46.895309
4154.296875	-46.791191
4155.273438	-46.812603
4156.250000	-47.522488
4157.226562	-47.482944
4158.203125	-47.279633
4159.179688	-46.945339
4160.156250	-47.302040
4161.132812	-47.000504
4162.109375	-47.356354
4163.085938	-47.196430
4164.062500	-46.440491
4165.039062	-46.559772
4166.015625	-46.783295
4166.992188	-46.759628
4167.968750	-47.420784
4168.945312	-47.125130
4169.921875	-46.248795
4170.898438	-47.480751
4171.875000	-47.069233
4172.851562	-47.117550
4173.828125	-46.704048
4174.804688	-47.453327
4175.781250	-47.075745
4176.757812	-46.258362
4177.734375	-47.240040
4178.710938	-46.901936
4179.687500	-46.422588
4180.664062	-46.840454
4181.640625	-47.319141
4182.617188	-47.378403
4183.593750	-47.479012
4184.570312	-46.789139
4185.546875	-47.155762
4186.523438	-46.726608
4187.500000	-47.609257
4188.476562	-46.615459
4189.453125	-46.751602
4190.429688	-46.414421
4191.406250	-46.758762
4192.382812	-46.374241
4193.359375	-47.216290
4194.335938	-46.758789
4195.312500	-46.629799
4196.289062	-47.560516
4197.265625	-47.389278
4198.242188	-46.885418
4199.218750	-46.967293
4200.195312	-47.420422
4201.171875	-47.077301
4202.148438	-47.228474
4203.125000	-47.173084
4204.101562	-46.527725
4205.078125	-47.240688
4206.054688	-46.301228
4207.031250	-46.971718
4208.007812	-47.254208
4208.984375	-46.660961
4209.960938	-47.740021
4210.937500	-46.852192
4211.914062	-46.659332
4212.890625	-47.355339
4213.867188	-46.056938
4214.843750	-46.707264
4215.820312	-47.741291
4216.796875	-46.365929
4217.773438	-47.631573
4218.750000	-47.803753
4219.726562	-46.742313
4220.703125	-46.485771
4221.679688	-46.427231
4222.656250	-47.720638
4223.632812	-47.076702
4224.609375	-47.240562
4225.585938	-46.612343
4226.562500	-47.599133
4227.539062	-45.994110
4228.515625	-46.850952
4229.492188	-46.739502
4230.468750	-46.743576
4231.445312	-47.507072
4232.421875	-46.997017
4233.398438	-46.771191
4234.375000	-47.131275
4235.351562	-46.927483
4236.328125	-46.530289
4237.304688	-46.908344
4238.281250	-46.558826
4239.257812	-47.241123
4240.234375	-46.886299
4241.210938	-46.748611
4242.187500	-47.192467
4243.164062	-46.674423
4244.140625	-46.812469
4245.117188	-47.310951
4246.093750	-47.693222
4247.070312	-46.518234
4248.046875	-46.813675
4249.023438	-46.647816
4250.000000	-46.762112
4250.976562	-46.593777
4251.953125	-46.607395
4252.929688	-46.424946
4253.906250	-46.879524
4254.882812	-46.617458
4255.859375	-47.900009
4256.835938	-47.648293
4257.812500	-46.815399
4258.789062	-46.863682
4259.765625	-47.485260
4260.742188	-47.399624
4261.718750	-46.839516
4262.695312	-47.170906
4263.671875	-46.745342
4264.648438	-46.654060
4265.625000	-46.545547
4266.601562	-47.246803
4267.578125	-47.704010
4268.554688	-46.637135
4269.531250	-47.224583
4270.507812	-47.250553
4271.484375	-46.473980
4272.460938	-47.234333
4273.437500	-46.780098
4274.414062	-47.053326
4275.390625	-46.973801
4276.367188	-46.980518
4277.343750	-46.822514
4278.320312	-47.151085
4279.296875	-46.465874
4280.273438	-47.327538
4281.250000	-46.705761
4282.226562	-46.898674
4283.203125	-47.325737
4284.179688	-47.507248
4285.156250	-47.010906
4286.132812	-46.546722
4287.109375	-46.734943
4288.085938	-46.469788
4289.062500	-47.538513
4290.039062	-47.365673
4291.015625	-47.378643
4291.992188	-46.761803
4292.968750	-46.824249
4293.945312	-45.950661
4294.921875	-46.153275
4295.898438	-47.413250
4296.875000	-46.617184
4297.851562	-46.979321
4298.828125	-47.431831
4299.804688	-47.178490
4300.781250	-46.733501
4301.757812	-46.708992
4302.734375	-46.985222
4303.710938	-46.614681
4304.687500	-47.036415
4305.664062	-47.040295
4306.640625	-46.915432
4307.617188	-46.939312
4308.593750	-47.130192
4309.570312	-46.685265
4310.546875	-46.871361
4311.523438	-46.419991
4312.500000	-47.662170
4313.476562	-46.683224
4314.453125	-46.546055
4315.429688	-46.551353
4316.406250	-47.299767
4317.382812	-46.723202
4318.359375	-46.975861
4319.335938	-47.248844
4320.312500	-46.582699
4321.289062	-46.136177
4322.265625	-46.913803
4323.242188	-46.668720
4324.218750	-46.557487
4325.195312	-46.964710
4326.171875	-46.808353
4327.148438	-46.504570
4328.125000	-46.864307
4329.101562	-46.973637
4330.078125	-46.725716
4331.054688	-46.592838
4332.031250	-47.485359
4333.007812	-46.723728
4333.984375	-46.696949
4334.960938	-46.392246
4335.937500	-47.039364
4336.914062	-46.621727
4337.890625	-47.410667
4338.867188	-46.611454
4339.843750	-46.709766
4340.820312	-46.953716
4341.796875	-46.670082
4342.773438	-47.808887
4343.750000	-46.842522
4344.726562	-47.167999
4345.703125	-47.339165
4346.679688	-47.422508
4347.656250	-46.912121
4348.632812	-47.264523
4349.609375	-47.281425
4350.585938	-47.109154
4351.562500	-47.372932
4352.539062	-47.095634
4353.515625	-46.385502
4354.492188	-46.981956
4355.468750	-46.662861
4356.445312	-47.556774
4357.421875	-46.908539
4358.398438	-46.645828
4359.375000	-46.407944
4360.351562	-46.465012
4361.328125	-46.333103
4362.304688	-47.420105
4363.281250	-46.747269
4364.257812	-47.309517
4365.234375	-46.340355
4366.210938	-47.080738
4367.187500	-47.644413
4368.164062	-47.509151
4369.140625	-46.791359
4370.117188	-47.390438
4371.093750	-47.389076
4372.070312	-46.844997
4373.046875	-46.896950
4374.023438	-47.692776
4375.000000	-46.850914
4375.976562	-47.070362
4376.953125	-47.159889
4377.929688	-46.452026
4378.906250	-47.004917
4379.882812	-46.924953
4380.859375	-46.780720
4381.835938	-45.977345
4382.812500	-46.753403
4383.789062	-46.653149
4384.765625	-46.854839
4385.742188	-46.689320
4386.718750	-46.788643
4387.695312	-47.580624
4388.671875	-46.749020
4389.648438	-46.327629
4390.625000	-47.085964
4391.601562	-46.801338
4392.578125	-46.414371
4393.554688	-46.361923
4394.531250	-46.429306
4395.507812	-46.649319
4396.484375	-46.836372
4397.460938	-46.851067
4398.437500	-47.239258
4399.414062	-47.016315
4400.390625	-46.542858
4401.367188	-46.157394
4402.343750	-46.877419
4403.320312	-46.880077
4404.296875	-46.973618
4405.273438	-46.679436
4406.250000	-47.251320
4407.226562	-47.108826
4408.203125	-46.430733
4409.179688	-46.842899
4410.156250	-47.686592
4411.132812	-47.068600
4412.109375	-46.430767
4413.085938	-46.805206
4414.062500	-47.252609
4415.039062	-46.728451
4416.015625	-47.025524
4416.992188	-46.754623
4417.968750	-47.246376
4418.945312	-46.478527
4419.921875	-46.924309
4420.898438	-46.934868
4421.875000	-47.914478
4422.851562	-47.318768
4423.828125	-47.079567
4424.804688	-46.624901
4425.781250	-47.102482
4426.757812	-46.685940
4427.734375	-47.322258
4428.710938	-46.875900
4429.687500	-47.169640
4430.664062	-46.793880
4431.640625	-47.600250
4432.617188	-46.728107
4433.593750	-47.254959
4434.570312	-47.186802
4435.546875	-46.899963
4436.523438	-46.706890
4437.500000	-46.944386
4438.476562	-46.572174
4439.453125	-46.233948
4440.429688	-46.780964
4441.406250	-47.033508
4442.382812	-46.698658
4443.359375	-47.008419
4444.335938	-46.080360
4445.312500	-46.938915
4446.289062	-46.612762
4447.265625	-47.310837
4448.242188	-46.489403
4449.218750	-46.904640
4450.195312	-47.022087
4451.171875	-47.237072
4452.148438	-45.659370
4453.125000	-46.731590
4454.101562	-46.125141
4455.078125	-46.448715
4456.054688	-47.440563
4457.031250	-47.608467
4458.007812	-47.283222
4458.984375	-47.851212
4459.960938	-47.124424
4460.937500	-46.662731
4461.914062	-47.400803
4462.890625	-47.109325
4463.867188	-47.113110
4464.843750	-46.501633
4465.820312	-47.179932
4466.796875	-47.013947
4467.773438	-46.490776
4468.750000	-47.337139
4469.726562	-46.652416
4470.703125	-47.048409
4471.679688	-46.866798
4472.656250	-47.429401
4473.632812	-46.273132
4474.609375	-46.155258
4475.585938	-46.370361
4476.562500	-46.735985
4477.539062	-47.204987
4478.515625	-46.745464
4479.492188	-46.294563
4480.468750	-46.876881
4481.445312	-46.049164
4482.421875	-47.232468
4483.398438	-46.755646
4484.375000	-46.193974
4485.351562	-46.972542
4486.328125	-46.541126
4487.304688	-47.740536
4488.281250	-47.763447
4489.257812	-46.052498
4490.234375	-46.584412
4491.210938	-47.555389
4492.187500	-47.621082
4493.164062	-46.797371
4494.140625	-47.084145
4495.117188	-46.695385
4496.093750	-46.529194
4497.070312	-46.897411
4498.046875	-46.764500
4499.023438	-47.372189
4500.000000	-46.541164
4500.976562	-47.004799
4501.953125	-47.150707
4502.929688	-47.005646
4503.906250	-47.126686
4504.882812	-47.326103
4505.859375	-46.306355
4506.835938	-46.675198
4507.812500	-46.743305
4508.789062	-47.067307
4509.765625	-46.864677
4510.742188	-47.038666
4511.718750	-46.527409
4512.695312	-46.868843
4513.671875	-47.697662
4514.648438	-46.668011
4515.625000	-47.793751
4516.601562	-47.235443
4517.578125	-47.141010
4518.554688	-46.141830
4519.531250	-47.272526
4520.507812	-46.985252
4521.484375	-46.321770
4522.460938	-47.000561
4523.437500	-47.323681
4524.414062	-46.977364
4525.390625	-46.900078
4526.367188	-47.365196
4527.343750	-46.687527
4528.320312	-47.117432
4529.296875	-47.331558
4530.273438	-47.107738
4531.250000	-46.563572
4532.226562	-47.174622
4533.203125	-47.091209
4534.179688	-46.447567
4535.156250	-45.836864
4536.132812	-46.842667
4537.109375	-46.609203
4538.085938	-47.093506
4539.062500	-46.398766
4540.039062	-46.554668
4541.015625	-47.024044
4541.992188	-47.129631
4542.968750	-47.331879
4543.945312	-46.565502
4544.921875	-46.809746
4545.898438	-47.001484
4546.875000	-47.118771
4547.851562	-46.594261
4548.828125	-46.449539
4549.804688	-47.669472
4550.781250	-47.452564
4551.757812	-47.288010
4552.734375	-46.879639
4553.710938	-46.706257
4554.687500	-47.515598
4555.664062	-47.479172
4556.640625	-47.698826
4557.617188	-47.206841
4558.593750	-47.192413
4559.570312	-47.006069
4560.546875	-48.088310
4561.523438	-46.502304
4562.500000	-47.091839
4563.476562	-46.943279
4564.453125	-46.572948
4565.429688	-46.965500
4566.406250	-47.154789
4567.382812	-46.356712
4568.359375	-46.827827
4569.335938	-47.658207
4570.312500	-47.011406
4571.289062	-46.642117
4572.265625	-47.750057
4573.242188	-46.565548
4574.218750	-46.571823
4575.195312	-46.609879
4576.171875	-46.780518
4577.148438	-46.921982
4578.125000	-46.856285
4579.101562	-47.657875
4580.078125	-47.445496
4581.054688	-47.635727
4582.031250	-47.241581
4583.007812	-47.073341
4583.984375	-46.958839
4584.960938	-47.191338
4585.937500	-46.667923
4586.914062	-46.404999
4587.890625	-47.542015
4588.867188	-47.628853
4589.843750	-47.363537
4590.820312	-47.506081
4591.796875	-47.089684
4592.773438	-47.034294
4593.750000	-46.742077
4594.726562	-46.742813
4595.703125	-45.379345
4596.679688	-46.432472
4597.656250	-46.028996
4598.632812	-46.724907
4599.609375	-46.859112
4600.585938	-46.709740
4601.562500	-46.047966
4602.539062	-47.700085
4603.515625	-47.159538
4604.492188	-47.144596
4605.468750	-47.569878
4606.445312	-47.233578
4607.421875	-46.699970
4608.398438	-46.531300
4609.375000	-47.106594
4610.351562	-46.905590
4611.328125	-46.945686
4612.304688	-47.518394
4613.281250	-47.710522
4614.257812	-46.692520
4615.234375	-46.822845
4616.210938	-46.527714
4617.187500	-47.001591
4618.164062	-47.003963
4619.140625	-47.969059
4620.117188	-47.362144
4621.093750	-46.786251
4622.070312	-46.922508
4623.046875	-46.990871
4624.023438	-46.693214
4625.000000	-46.921684
4625.976562	-47.642105
4626.953125	-47.062851
4627.929688	-46.757980
4628.906250	-46.624340
4629.882812	-46.705585
4630.859375	-46.901619
4631.835938	-47.515648
4632.812500	-46.675804
4633.789062	-47.040974
4634.765625	-47.196983
4635.742188	-46.989304
4636.718750	-46.096706
4637.695312	-46.150414
4638.671875	-47.381763
4639.648438	-46.051971
4640.625000	-46.368164
4641.601562	-46.691319
4642.578125	-47.158237
4643.554688	-46.495491
4644.531250	-46.885319
4645.507812	-46.528599
4646.484375	-46.824944
4647.460938	-46.840233
4648.437500	-47.308498
4649.414062	-46.604900
4650.390625	-46.375401
4651.367188	-47.837223
4652.343750	-47.223103
4653.320312	-46.417896
4654.296875	-46.350117
4655.273438	-46.544647
4656.250000	-46.911098
4657.226562	-46.664127
4658.203125	-47.600601
4659.179688	-46.870392
4660.156250	-46.601822
4661.132812	-47.279449
4662.109375	-46.265060
4663.085938	-46.407146
4664.062500	-46.965164
4665.039062	-47.140942
4666.015625	-46.488186
4666.992188	-46.697052
4667.968750	-47.496284
4668.945312	-46.977104
4669.921875	-46.953289
4670.898438	-47.400738
4671.875000	-46.205971
4672.851562	-47.065727
4673.828125	-47.129360
4674.804688	-47.739330
4675.781250	-46.670147
4676.757812	-46.553806
4677.734375	-46.599941
4678.710938	-47.414600
4679.687500	-46.539318
4680.664062	-46.587475
4681.640625	-46.725208
4682.617188	-46.799526
4683.593750	-47.044865
4684.570312	-47.423489
4685.546875	-47.559654
4686.523438	-47.439362
4687.500000	-46.679604
4688.476562	-47.017723
4689.453125	-47.557232
4690.429688	-46.813004
4691.406250	-46.677685
4692.382812	-46.962425
4693.359375	-45.908653
4694.335938	-46.448185
4695.312500	-46.423649
4696.289062	-47.435371
4697.265625	-47.026394
4698.242188	-46.735378
4699.218750	-46.781116
4700.195312	-47.636776
4701.171875	-46.906490
4702.148438	-46.402512
4703.125000	-47.205231
4704.101562	-47.659740
4705.078125	-46.439461
4706.054688	-47.637756
4707.031250	-47.311649
4708.007812	-46.530952
4708.984375	-47.594685
4709.960938	-46.567280
4710.937500	-46.251862
4711.914062	-46.629738
4712.890625	-46.947372
4713.867188	-46.231411
4714.843750	-46.925140
4715.820312	-47.306400
4716.796875	-46.776722
4717.773438	-47.338451
4718.750000	-46.703190
4719.726562	-46.860340
4720.703125	-47.441429
4721.679688	-47.228058
4722.656250	-47.585293
4723.632812	-47.791622
4724.609375	-46.331089
4725.585938	-46.846958
4726.562500	-46.802834
4727.539062	-46.088940
4728.515625	-46.166279
4729.492188	-46.727360
4730.468750	-46.717964
4731.445312	-46.681709
4732.421875	-46.489079
4733.398438	-47.801216
4734.375000	-47.486683
4735.351562	-46.874901
4736.328125	-46.483723
4737.304688	-48.026501
4738.281250	-48.174984
4739.257812	-47.204609
4740.234375	-45.820038
4741.210938	-46.547348
4742.187500	-46.917572
4743.164062	-46.312759
4744.140625	-47.047478
4745.117188	-46.990147
4746.093750	-46.919815
4747.070312	-47.329170
4748.046875	-47.106327
4749.023438	-47.158997
4750.000000	-47.092216
4750.976562	-47.878510
4751.953125	-47.187111
4752.929688	-46.942814
4753.906250	-46.275421
4754.882812	-47.261513
4755.859375	-46.727112
4756.835938	-46.854671
4757.812500	-46.876888
4758.789062	-47.272408
4759.765625	-46.301323
4760.742188	-46.831097
4761.718750	-46.296585
4762.695312	-47.152737
4763.671875	-47.143173
4764.648438	-46.920223
4765.625000	-47.577286
4766.601562	-47.391136
4767.578125	-47.271603
4768.554688	-46.756092
4769.531250	-47.271763
4770.507812	-46.763222
4771.484375	-47.576443
4772.460938	-47.989040
4773.437500	-46.991634
4774.414062	-46.499989
4775.390625	-46.902073
4776.367188	-46.674938
4777.343750	-46.957977
4778.320312	-47.374851
4779.296875	-46.671715
4780.273438	-47.064861
4781.250000	-47.433216
4782.226562	-46.743500
4783.203125	-47.295853
4784.179688	-46.552063
4785.156250	-46.958519
4786.132812	-46.940136
4787.109375	-47.052753
4788.085938	-46.903702
4789.062500	-47.187370
4790.039062	-46.146076
4791.015625	-47.117508
4791.992188	-47.395206
4792.968750	-47.113705
4793.945312	-46.735870
4794.921875	-47.370892
4795.898438	-47.048588
4796.875000	-47.132702
4797.851562	-47.308014
4798.828125	-47.170116
4799.804688	-46.232754
4800.781250	-46.752811
4801.757812	-46.590492
4802.734375	-46.984684
4803.710938	-46.729813
4804.687500	-47.018547
4805.664062	-46.889187
4806.640625	-46.235958
4807.617188	-46.275757
4808.593750	-47.468563
4809.570312	-47.440941
4810.546875	-46.444458
4811.523438	-47.073116
4812.500000	-47.541794
4813.476562	-46.709122
4814.453125	-46.569801
4815.429688	-46.925499
4816.406250	-48.012768
4817.382812	-46.530834
4818.359375	-46.540138
4819.335938	-47.289688
4820.312500	-46.665157
4821.289062	-46.597591
4822.265625	-47.033600
4823.242188	-46.828239
4824.218750	-46.834751
4825.195312	-47.094456
4826.171875	-46.774666
4827.148438	-47.089931
4828.125000	-47.175564
4829.101562	-46.822086
4830.078125	-47.670128
4831.054688	-47.004414
4832.031250	-47.848328
4833.007812	-47.520004
4833.984375	-46.966110
4834.960938	-46.819233
4835.937500	-46.615551
4836.914062	-47.038837
4837.890625	-46.900383
4838.867188	-46.928196
4839.843750	-46.824276
4840.820312	-46.598228
4841.796875	-46.786022
4842.773438	-47.083595
4843.750000	-46.838974
4844.726562	-46.666328
4845.703125	-46.731396
4846.679688	-47.294697
4847.656250	-47.424854
4848.632812	-46.352840
4849.609375	-46.680573
4850.585938	-47.215824
4851.562500	-46.713196
4852.539062	-46.497437
4853.515625	-46.580517
4854.492188	-46.970528
4855.468750	-46.976997
4856.445312	-46.756046
4857.421875	-46.685062
4858.398438	-47.597908
4859.375000	-46.757141
4860.351562	-46.917259
4861.328125	-46.697468
4862.304688	-46.728661
4863.281250	-46.853436
4864.257812	-46.237976
4865.234375	-47.071720
4866.210938	-47.337231
4867.187500	-47.280663
4868.164062	-47.221706
4869.140625	-46.561859
4870.117188	-46.402668
4871.093750	-46.401180
4872.070312	-47.238144
4873.046875	-47.066711
4874.023438	-46.916729
4875.000000	-47.123707
4875.976562	-46.187599
4876.953125	-46.802330
4877.929688	-47.392319
4878.906250	-46.940567
4879.882812	-47.230618
4880.859375	-47.216717
4881.835938	-47.747929
4882.812500	-47.699692
4883.789062	-46.876743
4884.765625	-47.180458
4885.742188	-47.989285
4886.718750	-47.367928
4887.695312	-46.758171
4888.671875	-46.153847
4889.648438	-46.966503
4890.625000	-46.317875
4891.601562	-46.864487
4892.578125	-47.543827
4893.554688	-47.052010
4894.531250	-46.976585
4895.507812	-46.779778
4896.484375	-46.902882
4897.460938	-46.152454
4898.437500	-47.588444
4899.414062	-46.668716
4900.390625	-46.884979
4901.367188	-46.417286
4902.343750	-46.351723
4903.320312	-47.126465
4904.296875	-47.275204
4905.273438	-47.888889
4906.250000	-47.044109
4907.226562	-46.549198
4908.203125	-47.215336
4909.179688	-46.947540
4910.156250	-46.858967
4911.132812	-47.001766
4912.109375	-47.033226
4913.085938	-47.068108
4914.062500	-47.178173
4915.039062	-47.120968
4916.015625	-47.257252
4916.992188	-47.790276
4917.968750	-46.519863
4918.945312	-47.420910
4919.921875	-46.890427
4920.898438	-47.936790
4921.875000	-47.199623
4922.851562	-47.001732
4923.828125	-46.611370
4924.804688	-45.961029
4925.781250	-46.891254
4926.757812	-46.368977
4927.734375	-47.032890
4928.710938	-47.430550
4929.687500	-46.408676
4930.664062	-47.610332
4931.640625	-46.976192
4932.617188	-47.335464
4933.593750	-47.305790
4934.570312	-46.910690
4935.546875	-46.999763
4936.523438	-47.171906
4937.500000	-47.248661
4938.476562	-46.568108
4939.453125	-47.472282
4940.429688	-46.800289
4941.406250	-46.949406
4942.382812	-46.985355
4943.359375	-46.754166
4944.335938	-47.583874
4945.312500	-47.003487
4946.289062	-47.179916
4947.265625	-46.875748
4948.242188	-47.597286
4949.218750	-47.292282
4950.195312	-47.022835
4951.171875	-47.097008
4952.148438	-46.688740
4953.125000	-47.063953
4954.101562	-47.135078
4955.078125	-46.824112
4956.054688	-45.735561
4957.031250	-47.598595
4958.007812	-47.139473
4958.984375	-47.340382
4959.960938	-47.204899
4960.937500	-47.054085
4961.914062	-46.790363
4962.890625	-46.574341
4963.867188	-46.448650
4964.843750	-46.250797
4965.820312	-46.607224
4966.796875	-47.172749
4967.773438	-46.830914
4968.750000	-47.218472
4969.726562	-47.164867
4970.703125	-45.947117
4971.679688	-47.228577
4972.656250	-47.220364
4973.632812	-46.726833
4974.609375	-46.416061
4975.585938	-47.023235
4976.562500	-47.410736
4977.539062	-46.886700
4978.515625	-47.283314
4979.492188	-46.923176
4980.468750	-46.959198
4981.445312	-46.799217
4982.421875	-47.371063
4983.398438	-46.384350
4984.375000	-46.888680
4985.351562	-46.568169
4986.328125	-47.013615
4987.304688	-47.405350
4988.281250	-45.936069
4989.257812	-46.189980
4990.234375	-46.342659
4991.210938	-46.570244
4992.187500	-46.899673
4993.164062	-47.209763
4994.140625	-46.579899
4995.117188	-46.386585
4996.093750	-46.979111
4997.070312	-46.577618
4998.046875	-47.241474
4999.023438	-47.560791
5000.000000	-46.881771
5000.976562	-46.296722
5001.953125	-47.088444
5002.929688	-47.399677
5003.906250	-46.735764
5004.882812	-46.391590
5005.859375	-46.284630
5006.835938	-47.226715
5007.812500	-46.749115
5008.789062	-47.156998
5009.765625	-47.396019
5010.742188	-47.440460
5011.718750	-47.402576
5012.695312	-47.078190
5013.671875	-47.463345
5014.648438	-46.270256
5015.625000	-47.197674
5016.601562	-46.441265
5017.578125	-46.349731
5018.554688	-47.101131
5019.531250	-46.900513
5020.507812	-47.466934
5021.484375	-47.055607
5022.460938	-46.681385
5023.437500	-46.937340
5024.414062	-47.003349
5025.390625	-47.097061
5026.367188	-46.959061
5027.343750	-46.860386
5028.320312	-46.886246
5029.296875	-46.516918
5030.273438	-46.622196
5031.250000	-46.766068
5032.226562	-46.243645
5033.203125	-47.337456
5034.179688	-48.481049
5035.156250	-46.894096
5036.132812	-46.978676
5037.109375	-46.901844
5038.085938	-47.066387
5039.062500	-46.949669
5040.039062	-46.822548
5041.015625	-47.358368
5041.992188	-47.040779
5042.968750	-46.338402
5043.945312	-46.843891
5044.921875	-46.733616
5045.898438	-47.703964
5046.875000	-47.073925
5047.851562	-47.216507
5048.828125	-46.985092
5049.804688	-46.804501
5050.781250	-47.338230
5051.757812	-47.107853
5052.734375	-46.750862
5053.710938	-47.198769
5054.687500	-46.915802
5055.664062	-46.767048
5056.640625	-47.388138
5057.617188	-46.730862
5058.593750	-46.560955
5059.570312	-46.919655
5060.546875	-46.888023
5061.523438	-47.094986
5062.500000	-47.280777
5063.476562	-46.599243
5064.453125	-46.995987
5065.429688	-46.943211
5066.406250	-47.758217
5067.382812	-47.431568
5068.359375	-46.662148
5069.335938	-46.601997
5070.312500	-46.563438
5071.289062	-47.261475
5072.265625	-48.150501
5073.242188	-47.482552
5074.218750	-46.945274
5075.195312	-47.018108
5076.171875	-46.477573
5077.148438	-46.377350
5078.125000	-47.334034
5079.101562	-47.234207
5080.078125	-46.674698
5081.054688	-46.539337
5082.031250	-46.646431
5083.007812	-47.040726
5083.984375	-46.132980
5084.960938	-46.935810
5085.937500	-47.390484
5086.914062	-46.831738
5087.890625	-47.371403
5088.867188	-47.230247
5089.843750	-46.811527
5090.820312	-47.123932
5091.796875	-46.969208
5092.773438	-45.953968
5093.750000	-47.411510
5094.726562	-47.191322
5095.703125	-46.683182
5096.679688	-46.824497
5097.656250	-46.701859
5098.632812	-47.604271
5099.609375	-47.362461
5100.585938	-47.224777
5101.562500	-46.761379
5102.539062	-46.725349
5103.515625	-46.977230
5104.492188	-46.220119
5105.468750	-46.165527
5106.445312	-46.622883
5107.421875	-47.116768
5108.398438	-46.084446
5109.375000	-46.571598
5110.351562	-47.316162
5111.328125	-47.085377
5112.304688	-46.607159
5113.281250	-46.534809
5114.257812	-46.625820
5115.234375	-47.179100
5116.210938	-46.753010
5117.187500	-46.497704
5118.164062	-46.975235
5119.140625	-46.312134
5120.117188	-47.286640
5121.093750	-47.171154
5122.070312	-46.794857
5123.046875	-47.013199
5124.023438	-46.449078
5125.000000	-47.447472
5125.976562	-46.902580
5126.953125	-46.820618
5127.929688	-46.660397
5128.906250	-47.215420
5129.882812	-46.847885
5130.859375	-47.118763
5131.835938	-46.780998
5132.812500	-47.132389
5133.789062	-47.263447
5134.765625	-48.147999
5135.742188	-47.329754
5136.718750	-46.215164
5137.695312	-46.386158
5138.671875	-46.969421
5139.648438	-47.122341
5140.625000	-46.810776
5141.601562	-46.545216
5142.578125	-47.724159
5143.554688	-46.695271
5144.531250	-47.330959
5145.507812	-46.848106
5146.484375	-47.004307
5147.460938	-47.793648
5148.437500	-46.723843
5149.414062	-47.227825
5150.390625	-46.071934
5151.367188	-46.729576
5152.343750	-46.821808
5153.320312	-46.702839
5154.296875	-46.448284
5155.273438	-47.189938
5156.250000	-47.573120
5157.226562	-46.598286
5158.203125	-46.379215
5159.179688	-47.567738
5160.156250	-46.981258
5161.132812	-46.801975
5162.109375	-47.165928
5163.085938	-47.467945
5164.062500	-47.040291
5165.039062	-46.788658
5166.015625	-47.278347
5166.992188	-46.164364
5167.968750	-46.528873
5168.945312	-46.672626
5169.921875	-47.142559
5170.898438	-46.532089
5171.875000	-48.055901
5172.851562	-47.653019
5173.828125	-46.954296
5174.804688	-46.288559
5175.781250	-46.933140
5176.757812	-47.435715
5177.734375	-46.811760
5178.710938	-46.709705
5179.687500	-46.555389
5180.664062	-47.206905
5181.640625	-47.400482
5182.617188	-46.659222
5183.593750	-47.151382
5184.570312	-46.018867
5185.546875	-47.174603
5186.523438	-46.903297
5187.500000	-46.659924
5188.476562	-46.606312
5189.453125	-46.619823
5190.429688	-46.944614
5191.406250	-46.490788
5192.382812	-46.432388
5193.359375	-46.962551
5194.335938	-46.584938
5195.312500	-46.867619
5196.289062	-47.726440
5197.265625	-47.180313
5198.242188	-46.944088
5199.218750	-47.293690
5200.195312	-47.613838
5201.171875	-47.149677
5202.148438	-46.994751
5203.125000	-47.303127
5204.101562	-47.877998
5205.078125	-47.323742
5206.054688	-46.554718
5207.031250	-46.845257
5208.007812	-47.111259
5208.984375	-46.824993
5209.960938	-46.729477
5210.937500	-47.027992
5211.914062	-47.261890
5212.890625	-46.520718
5213.867188	-45.926170
5214.843750	-46.480167
5215.820312	-47.106297
5216.796875	-46.624668
5217.773438	-46.664959
5218.750000	-46.923462
5219.726562	-47.250713
5220.703125	-45.945381
5221.679688	-45.703461
5222.656250	-46.760368
5223.632812	-47.154205
5224.609375	-46.725353
5225.585938	-47.039318
5226.562500	-46.566265
5227.539062	-46.641983
5228.515625	-47.217087
5229.492188	-46.865509
5230.468750	-46.992035
5231.445312	-46.934608
5232.421875	-47.270535
5233.398438	-46.170345
5234.375000	-46.634071
5235.351562	-47.105362
5236.328125	-46.608612
5237.304688	-46.188480
5238.281250	-46.152271
5239.257812	-46.916325
5240.234375	-47.266796
5241.210938	-47.650425
5242.187500	-47.536861
5243.164062	-47.144283
5244.140625	-46.073227
5245.117188	-46.363068
5246.093750	-46.464561
5247.070312	-47.219696
5248.046875	-47.011997
5249.023438	-46.772961
5250.000000	-47.236233
5250.976562	-46.789318
5251.953125	-47.241840
5252.929688	-46.500355
5253.906250	-46.190090
5254.882812	-47.335484
5255.859375	-47.222412
5256.835938	-46.922199
5257.812500	-46.439087
5258.789062	-46.748920
5259.765625	-47.249989
5260.742188	-46.807175
5261.718750	-46.974453
5262.695312	-46.771336
5263.671875	-46.447071
5264.648438	-46.564011
5265.625000	-46.770645
5266.601562	-46.676517
5267.578125	-46.778511
5268.554688	-46.759998
5269.531250	-47.109741
5270.507812	-46.839699
5271.484375	-47.336849
5272.460938	-46.985126
5273.437500	-46.098785
5274.414062	-46.883362
5275.390625	-46.591156
5276.367188	-46.088291
5277.343750	-46.461281
5278.320312	-46.565945
5279.296875	-46.545860
5280.273438	-46.910786
5281.250000	-47.045490
5282.226562	-46.999382
5283.203125	-46.889015
5284.179688	-47.171627
5285.156250	-46.399048
5286.132812	-46.564007
5287.109375	-46.353199
5288.085938	-47.452850
5289.062500	-47.291473
5290.039062	-47.206738
5291.015625	-46.756016
5291.992188	-47.034809
5292.968750	-47.412540
5293.945312	-46.400730
5294.921875	-46.812725
5295.898438	-46.691307
5296.875000	-47.376930
5297.851562	-47.827709
5298.828125	-46.457237
5299.804688	-46.502907
5300.781250	-47.200569
5301.757812	-46.739151
5302.734375	-47.033123
5303.710938	-47.043236
5304.687500	-46.910816
5305.664062	-47.336842
5306.640625	-47.173653
5307.617188	-46.131374
5308.593750	-46.567348
5309.570312	-46.842979
5310.546875	-46.760929
5311.523438	-46.970226
5312.500000	-46.855625
5313.476562	-46.386894
5314.453125	-46.790276
5315.429688	-46.834438
5316.406250	-46.745274
5317.382812	-47.381920
5318.359375	-46.563847
5319.335938	-46.667751
5320.312500	-46.821938
5321.289062	-46.600456
5322.265625	-46.567654
5323.242188	-47.569977
5324.218750	-47.144009
5325.195312	-47.200409
5326.171875	-46.365311
5327.148438	-47.249241
5328.125000	-47.607224
5329.101562	-47.165791
5330.078125	-46.165493
5331.054688	-46.496246
5332.031250	-47.391922
5333.007812	-47.867714
5333.984375	-46.195915
5334.960938	-46.217556
5335.937500	-46.534817
5336.914062	-47.033413
5337.890625	-46.141644
5338.867188	-47.025444
5339.843750	-46.996700
5340.820312	-45.974907
5341.796875	-46.957928
5342.773438	-47.194904
5343.750000	-46.829971
5344.726562	-46.976086
5345.703125	-47.123756
5346.679688	-46.589592
5347.656250	-47.126713
5348.632812	-47.626934
5349.609375	-47.818340
5350.585938	-47.484421
5351.562500	-46.090176
5352.539062	-46.979195
5353.515625	-46.883411
5354.492188	-46.855354
5355.468750	-46.781342
5356.445312	-47.117584
5357.421875	-47.009338
5358.398438	-47.049309
5359.375000	-46.541290
5360.351562	-47.086487
5361.328125	-46.318794
5362.304688	-46.844910
5363.281250	-47.088951
5364.257812	-46.794571
5365.234375	-47.265282
5366.210938	-46.659813
5367.187500	-46.595337
5368.164062	-46.704201
5369.140625	-46.405956
5370.117188	-47.225212
5371.093750	-47.605698
5372.070312	-46.917847
5373.046875	-46.849792
5374.023438	-46.689350
5375.000000	-47.171688
5375.976562	-47.445854
5376.953125	-47.262489
5377.929688	-47.101418
5378.906250	-47.272587
5379.882812	-46.811844
5380.859375	-46.700172
5381.835938	-47.249535
5382.812500	-47.300041
5383.789062	-47.124592
5384.765625	-46.731159
5385.742188	-46.972187
5386.718750	-46.994095
5387.695312	-46.743275
5388.671875	-46.501308
5389.648438	-46.964836
5390.625000	-46.461922
5391.601562	-46.397160
5392.578125	-47.207127
5393.554688	-46.771954
5394.531250	-46.673695
5395.507812	-47.390633
5396.484375	-46.323025
5397.460938	-47.011292
5398.437500	-46.617100
5399.414062	-46.645222
5400.390625	-47.128674
5401.367188	-46.563782
5402.343750	-46.767464
5403.320312	-46.691463
5404.296875	-47.210846
5405.273438	-47.068321
5406.250000	-47.082756
5407.226562	-47.323757
5408.203125	-46.757988
5409.179688	-46.980377
5410.156250	-46.671623
5411.132812	-47.361176
5412.109375	-46.487915
5413.085938	-46.847076
5414.062500	-46.909916
5415.039062	-46.547966
5416.015625	-46.958626
5416.992188	-46.544197
5417.968750	-47.430088
5418.945312	-47.156181
5419.921875	-47.683929
5420.898438	-46.877121
5421.875000	-46.561043
5422.851562	-47.843529
5423.828125	-46.787357
5424.804688	-47.582741
5425.781250	-47.234825
5426.757812	-47.407894
5427.734375	-46.562943
5428.710938	-46.335022
5429.687500	-46.779152
5430.664062	-46.251144
5431.640625	-46.135456
5432.617188	-46.166523
5433.593750	-46.151619
5434.570312	-46.593887
5435.546875	-46.622616
5436.523438	-46.789398
5437.500000	-46.142254
5438.476562	-47.033993
5439.453125	-46.947498
5440.429688	-47.076523
5441.406250	-46.553761
5442.382812	-47.462082
5443.359375	-46.860222
5444.335938	-46.781963
5445.312500	-46.833858
5446.289062	-46.193630
5447.265625	-47.246624
5448.242188	-46.909184
5449.218750	-47.632530
5450.195312	-46.840645
5451.171875	-46.335526
5452.148438	-46.708996
5453.125000	-46.652351
5454.101562	-46.871128
5455.078125	-46.909435
5456.054688	-46.851048
5457.031250	-46.169411
5458.007812	-47.339344
5458.984375	-47.447887
5459.960938	-47.153625
5460.937500	-47.635723
5461.914062	-46.733456
5462.890625	-46.369495
5463.867188	-46.794800
5464.843750	-46.766842
5465.820312	-46.728947
5466.796875	-47.487873
5467.773438	-47.876213
5468.750000	-46.927078
5469.726562	-47.159348
5470.703125	-47.293591
5471.679688	-47.110073
5472.656250	-46.726681
5473.632812	-46.421093
5474.609375	-46.910007
5475.585938	-46.786312
5476.562500	-46.375507
5477.539062	-47.396511
5478.515625	-47.713818
5479.492188	-47.873375
5480.468750	-47.553452
5481.445312	-47.206169
5482.421875	-47.366806
5483.398438	-46.664246
5484.375000	-46.548847
5485.351562	-47.124798
5486.328125	-46.983311
5487.304688	-47.141800
5488.281250	-46.497158
5489.257812	-47.592350
5490.234375	-47.501766
5491.210938	-47.044971
5492.187500	-46.622704
5493.164062	-47.336285
5494.140625	-47.123802
5495.117188	-46.947201
5496.093750	-47.469540
5497.070312	-47.258320
5498.046875	-47.183910
5499.023438	-47.009068
5500.000000	-46.014374
5500.976562	-46.909359
5501.953125	-47.166042
5502.929688	-47.314167
5503.906250	-47.764183
5504.882812	-47.388844
5505.859375	-46.416042
5506.835938	-47.184204
5507.812500	-46.578915
5508.789062	-47.009155
5509.765625	-47.225849
5510.742188	-46.933689
5511.718750	-47.321911
5512.695312	-47.178791
5513.671875	-46.955849
5514.648438	-47.026440
5515.625000	-47.059761
5516.601562	-46.483490
5517.578125	-47.771698
5518.554688	-46.678680
5519.531250	-46.825909
5520.507812	-47.258129
5521.484375	-47.539917
5522.460938	-47.294804
5523.437500	-46.396111
5524.414062	-46.918922
5525.390625	-47.020119
5526.367188	-47.571102
5527.343750	-47.539593
5528.320312	-46.901672
5529.296875	-46.418671
5530.273438	-46.675182
5531.250000	-47.605400
5532.226562	-46.884598
5533.203125	-46.391144
5534.179688	-46.683884
5535.156250	-46.161354
5536.132812	-46.939068
5537.109375	-47.079876
5538.085938	-46.606804
5539.062500	-47.091602
5540.039062	-47.463608
5541.015625	-47.678787
5541.992188	-46.719616
5542.968750	-46.529293
5543.945312	-46.322784
5544.921875	-46.789204
5545.898438	-46.704617
5546.875000	-46.899395
5547.851562	-46.930695
5548.828125	-46.556870
5549.804688	-46.350746
5550.781250	-46.582298
5551.757812	-47.062298
5552.734375	-46.067913
5553.710938	-46.805668
5554.687500	-46.552422
5555.664062	-46.587914
5556.640625	-46.468536
5557.617188	-46.540371
5558.593750	-47.287693
5559.570312	-46.990612
5560.546875	-46.112225
5561.523438	-46.326199
5562.500000	-46.227005
5563.476562	-46.963200
5564.453125	-47.162357
5565.429688	-46.669277
5566.406250	-47.083031
5567.382812	-47.199894
5568.359375	-46.740784
5569.335938	-46.525387
5570.312500	-47.121815
5571.289062	-47.559937
5572.265625	-47.537926
5573.242188	-47.062271
5574.218750	-47.281796
5575.195312	-46.838280
5576.171875	-47.108856
5577.148438	-46.732494
5578.125000	-46.907806
5579.101562	-46.522491
5580.078125	-47.072708
5581.054688	-46.614258
5582.031250	-46.839237
5583.007812	-46.255089
5583.984375	-47.340767
5584.960938	-46.717236
5585.937500	-46.751652
5586.914062	-46.419067
5587.890625	-47.178139
5588.867188	-46.991734
5589.843750	-47.323368
5590.820312	-47.504742
5591.796875	-47.384083
5592.773438	-47.117111
5593.750000	-46.827576
5594.726562	-46.615501
5595.703125	-46.883774
5596.679688	-46.564369
5597.656250	-47.032047
5598.632812	-47.466839
5599.609375	-47.284309
5600.585938	-46.730179
5601.562500	-47.375790
5602.539062	-47.797260
5603.515625	-46.664719
5604.492188	-47.325684
5605.468750	-47.103699
5606.445312	-47.788780
5607.421875	-47.273895
5608.398438	-46.530239
5609.375000	-47.091656
5610.351562	-47.964336
5611.328125	-47.494762
5612.304688	-47.666878
5613.281250	-46.745178
5614.257812	-46.521523
5615.234375	-47.428623
5616.210938	-46.751873
5617.187500	-47.215229
5618.164062	-46.987900
5619.140625	-46.965492
5620.117188	-46.994495
5621.093750	-47.010349
5622.070312	-46.382591
5623.046875	-46.564117
5624.023438	-47.473015
5625.000000	-46.785538
5625.976562	-47.352802
5626.953125	-47.455151
5627.929688	-46.962917
5628.906250	-47.371395
5629.882812	-47.362892
5630.859375	-46.550793
5631.835938	-46.691803
5632.812500	-47.455711
5633.789062	-46.880314
5634.765625	-47.488632
5635.742188	-46.867844
5636.718750	-46.904736
5637.695312	-46.773449
5638.671875	-47.433609
5639.648438	-46.711182
5640.625000	-46.161720
5641.601562	-46.681679
5642.578125	-46.580544
5643.554688	-46.704494
5644.531250	-47.067844
5645.507812	-46.991776
5646.484375	-46.050106
5647.460938	-46.635902
5648.437500	-46.644154
5649.414062	-47.232658
5650.390625	-46.940838
5651.367188	-47.303276
5652.343750	-46.592285
5653.320312	-47.034050
5654.296875	-47.310272
5655.273438	-47.369350
5656.250000	-46.505592
5657.226562	-46.627789
5658.203125	-46.520515
5659.179688	-46.688900
5660.156250	-47.132713
5661.132812	-46.762222
5662.109375	-46.147503
5663.085938	-46.863380
5664.062500	-46.603634
5665.039062	-46.849579
5666.015625	-46.602924
5666.992188	-46.670364
5667.968750	-47.444389
5668.945312	-46.906120
5669.921875	-47.340763
5670.898438	-46.298664
5671.875000	-46.863258
5672.851562	-46.730793
5673.828125	-46.745090
5674.804688	-47.464737
5675.781250	-47.423973
5676.757812	-47.164391
5677.734375	-47.038334
5678.710938	-47.538502
5679.687500	-46.728672
5680.664062	-46.447868
5681.640625	-46.453026
5682.617188	-46.793564
5683.593750	-46.431248
5684.570312	-47.028011
5685.546875	-47.009811
5686.523438	-46.861927
5687.500000	-47.004230
5688.476562	-47.167889
5689.453125	-47.439247
5690.429688	-46.381458
5691.406250	-46.368225
5692.382812	-46.827549
5693.359375	-46.894901
5694.335938	-46.345497
5695.312500	-47.385059
5696.289062	-47.150784
5697.265625	-46.822666
5698.242188	-46.465317
5699.218750	-47.273781
5700.195312	-46.894306
5701.171875	-46.733433
5702.148438	-46.958149
5703.125000	-47.002136
5704.101562	-46.438885
5705.078125	-47.415077
5706.054688	-46.261414
5707.031250	-46.793407
5708.007812	-46.923077
5708.984375	-46.972504
5709.960938	-47.336555
5710.937500	-46.529411
5711.914062	-47.202332
5712.890625	-46.778385
5713.867188	-46.739136
5714.843750	-46.791718
5715.820312	-46.692795
5716.796875	-46.955620
5717.773438	-46.791553
5718.750000	-47.893959
5719.726562	-46.649338
5720.703125	-46.604939
5721.679688	-47.073299
5722.656250	-46.559498
5723.632812	-46.874252
5724.609375	-46.026024
5725.585938	-47.386223
5726.562500	-46.738522
5727.539062	-46.384911
5728.515625	-46.875858
5729.492188	-46.346424
5730.468750	-46.414211
5731.445312	-46.929768
5732.421875	-46.884399
5733.398438	-46.726124
5734.375000	-47.468510
5735.351562	-47.588688
5736.328125	-47.581589
5737.304688	-47.715584
5738.281250	-47.839512
5739.257812	-47.640835
5740.234375	-46.924263
5741.210938	-46.700230
5742.187500	-47.502762
5743.164062	-47.132221
5744.140625	-46.306973
5745.117188	-46.163731
5746.093750	-46.994083
5747.070312	-47.088955
5748.046875	-47.870834
5749.023438	-47.549953
5750.000000	-47.501923
5750.976562	-47.315678
5751.953125	-47.057640
5752.929688	-47.300117
5753.906250	-47.047207
5754.882812	-46.518925
5755.859375	-46.531921
5756.835938	-47.675148
5757.812500	-47.660324
5758.789062	-47.647564
5759.765625	-47.569920
5760.742188	-47.818462
5761.718750	-46.929348
5762.695312	-47.494129
5763.671875	-46.673332
5764.648438	-46.682571
5765.625000	-47.007530
5766.601562	-47.179115
5767.578125	-47.478443
5768.554688	-47.400803
5769.531250	-47.138088
5770.507812	-47.500404
5771.484375	-47.872284
5772.460938	-46.305264
5773.437500	-46.528332
5774.414062	-46.695984
5775.390625	-46.388641
5776.367188	-47.096798
5777.343750	-46.845688
5778.320312	-46.876808
5779.296875	-47.456272
5780.273438	-48.068920
5781.250000	-46.415684
5782.226562	-46.163563
5783.203125	-46.216240
5784.179688	-46.724400
5785.156250	-46.389786
5786.132812	-47.156696
5787.109375	-47.047848
5788.085938	-46.534115
5789.062500	-46.981197
5790.039062	-46.675812
5791.015625	-46.882538
5791.992188	-47.228645
5792.968750	-46.943909
5793.945312	-46.940056
5794.921875	-46.649460
5795.898438	-46.655251
5796.875000	-46.623230
5797.851562	-47.602036
5798.828125	-47.269119
5799.804688	-47.833981
5800.781250	-46.794884
5801.757812	-47.091763
5802.734375	-46.788471
5803.710938	-46.809231
5804.687500	-47.080574
5805.664062	-47.126228
5806.640625	-46.421635
5807.617188	-46.647324
5808.593750	-47.397705
5809.570312	-47.757217
5810.546875	-47.111557
5811.523438	-47.131935
5812.500000	-47.101200
5813.476562	-47.125637
5814.453125	-47.169216
5815.429688	-46.727001
5816.406250	-46.955692
5817.382812	-46.960030
5818.359375	-47.004368
5819.335938	-46.547623
5820.312500	-47.070930
5821.289062	-47.024506
5822.265625	-46.885113
5823.242188	-46.454308
5824.218750	-46.768314
5825.195312	-46.989433
5826.171875	-48.203556
5827.148438	-47.106670
5828.125000	-46.713741
5829.101562	-46.669353
5830.078125	-47.323223
5831.054688	-46.715118
5832.031250	-46.916702
5833.007812	-47.029896
5833.984375	-47.336456
5834.960938	-47.507278
5835.937500	-47.241768
5836.914062	-46.331985
5837.890625	-47.529137
5838.867188	-46.818478
5839.843750	-46.762871
5840.820312	-47.642117
5841.796875	-46.509178
5842.773438	-45.963715
5843.750000	-46.406265
5844.726562	-46.613132
5845.703125	-47.256618
5846.679688	-47.226627
5847.656250	-47.297081
5848.632812	-46.828575
5849.609375	-47.051651
5850.585938	-46.887184
5851.562500	-47.024364
5852.539062	-47.276127
5853.515625	-46.325653
5854.492188	-46.834209
5855.468750	-47.485321
5856.445312	-46.347107
5857.421875	-46.616547
5858.398438	-46.619587
5859.375000	-47.126316
5860.351562	-47.004856
5861.328125	-47.203537
5862.304688	-47.137901
5863.281250	-46.735851
5864.257812	-46.647076
5865.234375	-47.057217
5866.210938	-47.043095
5867.187500	-46.457600
5868.164062	-46.830345
5869.140625	-46.229992
5870.117188	-46.640835
5871.093750	-46.754745
5872.070312	-46.442219
5873.046875	-46.405357
5874.023438	-47.091877
5875.000000	-46.158558
5875.976562	-46.828815
5876.953125	-46.999077
5877.929688	-47.238411
5878.906250	-47.297810
5879.882812	-46.497540
5880.859375	-46.196030
5881.835938	-47.075043
5882.812500	-47.443771
5883.789062	-47.130901
5884.765625	-46.722157
5885.742188	-46.975597
5886.718750	-46.547279
5887.695312	-46.720955
5888.671875	-46.112881
5889.648438	-46.193066
5890.625000	-46.287704
5891.601562	-46.972034
5892.578125	-47.018127
5893.554688	-47.353123
5894.531250	-47.991364
5895.507812	-46.609898
5896.484375	-47.071239
5897.460938	-46.863937
5898.437500	-46.354240
5899.414062	-47.325268
5900.390625	-47.426731
5901.367188	-46.787666
5902.343750	-47.035374
5903.320312	-47.294033
5904.296875	-47.524612
5905.273438	-46.469193
5906.250000	-46.993855
5907.226562	-46.216957
5908.203125	-46.832657
5909.179688	-46.534004
5910.156250	-46.109478
5911.132812	-46.180351
5912.109375	-46.997810
5913.085938	-47.723804
5914.062500	-46.958790
5915.039062	-46.409973
5916.015625	-47.063820
5916.992188	-46.715816
5917.968750	-46.555248
5918.945312	-47.720821
5919.921875	-47.214767
5920.898438	-46.855461
5921.875000	-46.827446
5922.851562	-47.721413
5923.828125	-46.262989
5924.804688	-46.833229
5925.781250	-47.615555
5926.757812	-46.279583
5927.734375	-46.583382
5928.710938	-46.732899
5929.687500	-46.863934
5930.664062	-47.377064
5931.640625	-47.262177
5932.617188	-47.533813
5933.593750	-47.091423
5934.570312	-46.801086
5935.546875	-46.323883
5936.523438	-46.411713
5937.500000	-46.085629
5938.476562	-46.443218
5939.453125	-46.982372
5940.429688	-46.941242
5941.406250	-47.166527
5942.382812	-46.955341
5943.359375	-46.366989
5944.335938	-47.425411
5945.312500	-47.137684
5946.289062	-46.761703
5947.265625	-46.792606
5948.242188	-47.103001
5949.218750	-45.754986
5950.195312	-46.957706
5951.171875	-46.712231
5952.148438	-47.398426
5953.125000	-47.142067
5954.101562	-46.621815
5955.078125	-47.138405
5956.054688	-46.553246
5957.031250	-47.106884
5958.007812	-46.449764
5958.984375	-46.516178
5959.960938	-46.750275
5960.937500	-46.317520
5961.914062	-46.777370
5962.890625	-47.015427
5963.867188	-46.628933
5964.843750	-47.248940
5965.820312	-47.885414
5966.796875	-47.242676
5967.773438	-46.511913
5968.750000	-47.772076
5969.726562	-47.596203
5970.703125	-47.221478
5971.679688	-48.064167
5972.656250	-47.483059
5973.632812	-46.505436
5974.609375	-47.173115
5975.585938	-46.760193
5976.562500	-46.579651
5977.539062	-46.581951
5978.515625	-47.362679
5979.492188	-46.858719
5980.468750	-47.076523
5981.445312	-46.540619
5982.421875	-47.209526
5983.398438	-47.369881
5984.375000	-47.423180
5985.351562	-47.238522
5986.328125	-47.006985
5987.304688	-46.925549
5988.281250	-46.540661
5989.257812	-46.740227
5990.234375	-47.194057
5991.210938	-47.287815
5992.187500	-46.832634
5993.164062	-47.194847
5994.140625	-46.728226
5995.117188	-47.176369
5996.093750	-47.004295
5997.070312	-46.682793
5998.046875	-47.018669
5999.023438	-46.762775
6000.000000	-46.672787
6000.976562	-46.762306
6001.953125	-47.256180
6002.929688	-46.612484
6003.906250	-47.229862
6004.882812	-46.877216
6005.859375	-46.758770
6006.835938	-47.002609
6007.812500	-47.023224
6008.789062	-46.728809
6009.765625	-46.589661
6010.742188	-46.586304
6011.718750	-47.133968
6012.695312	-47.297592
6013.671875	-48.052471
6014.648438	-47.571014
6015.625000	-46.684605
6016.601562	-46.485443
6017.578125	-46.849228
6018.554688	-46.485641
6019.531250	-46.421856
6020.507812	-47.722107
6021.484375	-47.391296
6022.460938	-46.892986
6023.437500	-46.114212
6024.414062	-46.788502
6025.390625	-47.493423
6026.367188	-46.401821
6027.343750	-47.035095
6028.320312	-46.534355
6029.296875	-47.344803
6030.273438	-47.339504
6031.250000	-47.030483
6032.226562	-47.380188
6033.203125	-46.840187
6034.179688	-46.980797
6035.156250	-46.577457
6036.132812	-47.362053
6037.109375	-46.557549
6038.085938	-46.977776
6039.062500	-48.067677
6040.039062	-47.196987
6041.015625	-47.004749
6041.992188	-46.829884
6042.968750	-46.987930
6043.945312	-47.484531
6044.921875	-46.944229
6045.898438	-46.864891
6046.875000	-46.546112
6047.851562	-46.654243
6048.828125	-47.301590
6049.804688	-46.462212
6050.781250	-47.518719
6051.757812	-47.412731
6052.734375	-46.533443
6053.710938	-47.478302
6054.687500	-47.171448
6055.664062	-47.826408
6056.640625	-46.602924
6057.617188	-47.265396
6058.593750	-46.886318
6059.570312	-47.643726
6060.546875	-47.107220
6061.523438	-46.915688
6062.500000	-47.593403
6063.476562	-46.339584
6064.453125	-47.411503
6065.429688	-46.561714
6066.406250	-46.483494
6067.382812	-47.257095
6068.359375	-46.922482
6069.335938	-46.878571
6070.312500	-47.308491
6071.289062	-46.653797
6072.265625	-46.812683
6073.242188	-46.612164
6074.218750	-46.998981
6075.195312	-47.326534
6076.171875	-47.355125
6077.148438	-46.468246
6078.125000	-46.845779
6079.101562	-47.288467
6080.078125	-47.087822
6081.054688	-46.342800
6082.031250	-46.572464
6083.007812	-45.655453
6083.984375	-46.189728
6084.960938	-46.717991
6085.937500	-45.726395
6086.914062	-46.410130
6087.890625	-47.167522
6088.867188	-47.393024
6089.843750	-46.721115
6090.820312	-47.305801
6091.796875	-46.758057
6092.773438	-46.743217
6093.750000	-46.522003
6094.726562	-46.755489
6095.703125	-47.292976
6096.679688	-47.580357
6097.656250	-46.491577
6098.632812	-46.833920
6099.609375	-46.785320
6100.585938	-47.491791
6101.562500	-47.437340
6102.539062	-46.476940
6103.515625	-47.484966
6104.492188	-47.674080
6105.468750	-46.700531
6106.445312	-46.642773
6107.421875	-46.516701
6108.398438	-46.577774
6109.375000	-46.677845
6110.351562	-46.397789
6111.328125	-47.431301
6112.304688	-47.852489
6113.281250	-47.746597
6114.257812	-46.701649
6115.234375	-46.864712
6116.210938	-47.307384
6117.187500	-47.419582
6118.164062	-47.266098
6119.140625	-47.102985
6120.117188	-46.849030
6121.093750	-47.096043
6122.070312	-46.690414
6123.046875	-45.962662
6124.023438	-46.530304
6125.000000	-46.749954
6125.976562	-47.105171
6126.953125	-47.760181
6127.929688	-47.356392
6128.906250	-47.395515
6129.882812	-46.738213
6130.859375	-46.820599
6131.835938	-46.760288
6132.812500	-46.888271
6133.789062	-46.738461
6134.765625	-47.028172
6135.742188	-47.895287
6136.718750	-47.011997
6137.695312	-47.036079
6138.671875	-47.783401
6139.648438	-47.559204
6140.625000	-47.315887
6141.601562	-46.455914
6142.578125	-47.928799
6143.554688	-47.148403
6144.531250	-46.744678
6145.507812	-47.763626
6146.484375	-47.511707
6147.460938	-47.243507
6148.437500	-47.597179
6149.414062	-47.169018
6150.390625	-47.210365
6151.367188	-47.019814
6152.343750	-47.481468
6153.320312	-47.390221
6154.296875	-47.524628
6155.273438	-46.591682
6156.250000	-46.972637
6157.226562	-47.745777
6158.203125	-47.724781
6159.179688	-47.177925
6160.156250	-46.834583
6161.132812	-46.824997
6162.109375	-46.640701
6163.085938	-46.487774
6164.062500	-46.863392
6165.039062	-46.401100
6166.015625	-46.666317
6166.992188	-47.213497
6167.968750	-46.609543
6168.945312	-47.129803
6169.921875	-46.490498
6170.898438	-47.278183
6171.875000	-46.737392
6172.851562	-46.560413
6173.828125	-45.793629
6174.804688	-47.336628
6175.781250	-46.957512
6176.757812	-47.516544
6177.734375	-47.153477
6178.710938	-46.690754
6179.687500	-47.266811
6180.664062	-46.839592
6181.640625	-46.495903
6182.617188	-47.313740
6183.593750	-46.593761
6184.570312	-46.781109
6185.546875	-46.842999
6186.523438	-47.032124
6187.500000	-46.354351
6188.476562	-46.988388
6189.453125	-46.613651
6190.429688	-47.228455
6191.406250	-46.762348
6192.382812	-47.149776
6193.359375	-46.604797
6194.335938	-46.910828
6195.312500	-47.214287
6196.289062	-46.489685
6197.265625	-47.411175
6198.242188	-46.982506
6199.218750	-47.087566
6200.195312	-47.833515
6201.171875	-46.870773
6202.148438	-46.407227
6203.125000	-46.742142
6204.101562	-46.762936
6205.078125	-46.379162
6206.054688	-47.346889
6207.031250	-47.186646
6208.007812	-47.250153
6208.984375	-46.883114
6209.960938	-46.937801
6210.937500	-47.254421
6211.914062	-46.655697
6212.890625	-47.541153
6213.867188	-47.110832
6214.843750	-46.978279
6215.820312	-47.097164
6216.796875	-46.577652
6217.773438	-46.765938
6218.750000	-47.151672
6219.726562	-46.684765
6220.703125	-46.279678
6221.679688	-47.166031
6222.656250	-47.316078
6223.632812	-47.315109
6224.609375	-47.178226
6225.585938	-47.107475
6226.562500	-46.769688
6227.539062	-47.514820
6228.515625	-47.182060
6229.492188	-46.764118
6230.468750	-47.405415
6231.445312	-47.146168
6232.421875	-47.226086
6233.398438	-46.694645
6234.375000	-46.854340
6235.351562	-46.280987
6236.328125	-46.719387
6237.304688	-46.883274
6238.281250	-46.180542
6239.257812	-47.620583
6240.234375	-46.953861
6241.210938	-46.883244
6242.187500	-46.253044
6243.164062	-47.022530
6244.140625	-46.659325
6245.117188	-47.470242
6246.093750	-47.367916
6247.070312	-46.900032
6248.046875	-46.065483
6249.023438	-46.655685
6250.000000	-47.145351
6250.976562	-46.623119
6251.953125	-46.796749
6252.929688	-47.396763
6253.906250	-47.149223
6254.882812	-47.377689
6255.859375	-47.451653
6256.835938	-47.120564
6257.812500	-46.349380
6258.789062	-47.107441
6259.765625	-46.287632
6260.742188	-46.546429
6261.718750	-47.287674
6262.695312	-47.220303
6263.671875	-47.085934
6264.648438	-46.247704
6265.625000	-46.808331
6266.601562	-46.610428
6267.578125	-46.710629
6268.554688	-46.910118
6269.531250	-46.817406
6270.507812	-46.361004
6271.484375	-47.111908
6272.460938	-47.297863
6273.437500	-46.955536
6274.414062	-46.779430
6275.390625	-48.200184
6276.367188	-47.139919
6277.343750	-47.444633
6278.320312	-47.254791
6279.296875	-47.278877
6280.273438	-46.722759
6281.250000	-47.310982
6282.226562	-47.180813
6283.203125	-47.231068
6284.179688	-47.009647
6285.156250	-46.627350
6286.132812	-46.419445
6287.109375	-47.495144
6288.085938	-46.844563
6289.062500	-46.623768
6290.039062	-47.099686
6291.015625	-46.644997
6291.992188	-46.657951
6292.968750	-45.883904
6293.945312	-46.690590
6294.921875	-47.147266
6295.898438	-47.810646
6296.875000	-47.279171
6297.851562	-46.838284
6298.828125	-46.946888
6299.804688	-46.883808
6300.781250	-47.488964
6301.757812	-46.959076
6302.734375	-46.656540
6303.710938	-46.902630
6304.687500	-47.174351
6305.664062	-47.424549
6306.640625	-46.808582
6307.617188	-46.458126
6308.593750	-46.842472
6309.570312	-47.133587
6310.546875	-46.720688
6311.523438	-47.291790
6312.500000	-47.751652
6313.476562	-47.478611
6314.453125	-46.944298
6315.429688	-46.985950
6316.406250	-46.551289
6317.382812	-46.483627
6318.359375	-46.724209
6319.335938	-46.971123
6320.312500	-47.683285
6321.289062	-47.161209
6322.265625	-48.210659
6323.242188	-47.586365
6324.218750	-47.208382
6325.195312	-46.861149
6326.171875	-47.139812
6327.148438	-46.581387
6328.125000	-46.270775
6329.101562	-47.411842
6330.078125	-47.032318
6331.054688	-47.060299
6332.031250	-46.640038
6333.007812	-46.320686
6333.984375	-47.814724
6334.960938	-47.287914
6335.937500	-46.872841
6336.914062	-46.669418
6337.890625	-46.097698
6338.867188	-46.700306
6339.843750	-47.528439
6340.820312	-46.324169
6341.796875	-47.317898
6342.773438	-46.936069
6343.750000	-47.007778
6344.726562	-47.633968
6345.703125	-46.376648
6346.679688	-46.446018
6347.656250	-47.496555
6348.632812	-47.845383
6349.609375	-47.264797
6350.585938	-46.826115
6351.562500	-46.759670
6352.539062	-46.055408
6353.515625	-46.843323
6354.492188	-46.913330
6355.468750	-46.284531
6356.445312	-47.093777
6357.421875	-47.219940
6358.398438	-46.900303
6359.375000	-46.744385
6360.351562	-47.085434
6361.328125	-47.401421
6362.304688	-46.815998
6363.281250	-47.493351
6364.257812	-47.102024
6365.234375	-47.177368
6366.210938	-47.022736
6367.187500	-46.033234
6368.164062	-46.776096
6369.140625	-46.989674
6370.117188	-47.608154
6371.093750	-46.684696
6372.070312	-47.232235
6373.046875	-47.915764
6374.023438	-47.557205
6375.000000	-46.488400
6375.976562	-46.550900
6376.953125	-46.872414
6377.929688	-47.692768
6378.906250	-46.985596
6379.882812	-46.913994
6380.859375	-46.499718
6381.835938	-47.295223
6382.812500	-46.654140
6383.789062	-46.955421
6384.765625	-47.229198
6385.742188	-47.276932
6386.718750	-47.459583
6387.695312	-47.007504
6388.671875	-46.803158
6389.648438	-46.493431
6390.625000	-47.040840
6391.601562	-46.979782
6392.578125	-46.845776
6393.554688	-47.140057
6394.531250	-47.054943
6395.507812	-46.709438
6396.484375	-46.638020
6397.460938	-47.370888
6398.437500	-46.993950
6399.414062	-46.759338
6400.390625	-46.452332
6401.367188	-46.653034
6402.343750	-46.493465
6403.320312	-46.493580
6404.296875	-46.587254
6405.273438	-47.184589
6406.250000	-46.391808
6407.226562	-47.137455
6408.203125	-46.682896
6409.179688	-46.716724
6410.156250	-47.046135
6411.132812	-46.949024
6412.109375	-46.021427
6413.085938	-46.512627
6414.062500	-46.747036
6415.039062	-46.900261
6416.015625	-46.793655
6416.992188	-46.782513
6417.968750	-46.669788
6418.945312	-45.833832
6419.921875	-47.328854
6420.898438	-46.325062
6421.875000	-46.795391
6422.851562	-47.436729
6423.828125	-47.203335
6424.804688	-46.746410
6425.781250	-47.060932
6426.757812	-47.215633
6427.734375	-47.172802
6428.710938	-46.881893
6429.687500	-46.284546
6430.664062	-47.515240
6431.640625	-47.057983
6432.617188	-46.622097
6433.593750	-46.532803
6434.570312	-46.636383
6435.546875	-46.839138
6436.523438	-46.733997
6437.500000	-46.980618
6438.476562	-46.558266
6439.453125	-46.328865
6440.429688	-46.615425
6441.406250	-47.275684
6442.382812	-46.914509
6443.359375	-46.781471
6444.335938	-46.853622
6445.312500	-46.831696
6446.289062	-46.881622
6447.265625	-46.672432
6448.242188	-46.859207
6449.218750	-47.780560
6450.195312	-46.639824
6451.171875	-46.217129
6452.148438	-46.809471
6453.125000	-47.704994
6454.101562	-46.249027
6455.078125	-47.242161
6456.054688	-46.654339
6457.031250	-46.640457
6458.007812	-47.345680
6458.984375	-47.299553
6459.960938	-46.582298
6460.937500	-47.105244
6461.914062	-47.587517
6462.890625	-46.719040
6463.867188	-45.975872
6464.843750	-46.604088
6465.820312	-46.589439
6466.796875	-46.967770
6467.773438	-46.734680
6468.750000	-47.175915
6469.726562	-46.766560
6470.703125	-47.314396
6471.679688	-46.329762
6472.656250	-46.001606
6473.632812	-47.221474
6474.609375	-46.935844
6475.585938	-46.588783
6476.562500	-46.573681
6477.539062	-47.053825
6478.515625	-46.903801
6479.492188	-47.146111
6480.468750	-47.779926
6481.445312	-48.290295
6482.421875	-47.087074
6483.398438	-46.469589
6484.375000	-46.534374
6485.351562	-46.935459
6486.328125	-46.818275
6487.304688	-47.191959
6488.281250	-46.632023
6489.257812	-47.231083
6490.234375	-47.070305
6491.210938	-46.887283
6492.187500	-47.092171
6493.164062	-47.847912
6494.140625	-47.176178
6495.117188	-46.568916
6496.093750	-46.695347
6497.070312	-46.030178
6498.046875	-46.864880
6499.023438	-46.558960
6500.000000	-47.468166
6500.976562	-47.053413
6501.953125	-46.653862
6502.929688	-47.044697
6503.906250	-45.944378
6504.882812	-46.467663
6505.859375	-46.879372
6506.835938	-46.883114
6507.812500	-47.358513
6508.789062	-46.056507
6509.765625	-46.428452
6510.742188	-46.490044
6511.718750	-47.238815
6512.695312	-46.355438
6513.671875	-46.377930
6514.648438	-46.690411
6515.625000	-47.375538
6516.601562	-46.833702
6517.578125	-46.632427
6518.554688	-47.159782
6519.531250	-46.986427
6520.507812	-46.948784
6521.484375	-46.830811
6522.460938	-46.551998
6523.437500	-46.394924
6524.414062	-46.982460
6525.390625	-47.916374
6526.367188	-47.428570
6527.343750	-47.033272
6528.320312	-47.152073
6529.296875	-47.107300
6530.273438	-47.059456
6531.250000	-46.682602
6532.226562	-46.703636
6533.203125	-46.817158
6534.179688	-47.183567
6535.156250	-47.589687
6536.132812	-46.541828
6537.109375	-45.981522
6538.085938	-46.924377
6539.062500	-47.127235
6540.039062	-46.988407
6541.015625	-46.875179
6541.992188	-47.135365
6542.968750	-47.072807
6543.945312	-46.685680
6544.921875	-46.628513
6545.898438	-47.676762
6546.875000	-47.035622
6547.851562	-47.458950
6548.828125	-47.498905
6549.804688	-46.741829
6550.781250	-46.200424
6551.757812	-46.583687
6552.734375	-46.945385
6553.710938	-47.064651
6554.687500	-47.012951
6555.664062	-46.420208
6556.640625	-47.342415
6557.617188	-46.867462
6558.593750	-46.488792
6559.570312	-47.457684
6560.546875	-46.469116
6561.523438	-47.035755
6562.500000	-46.552250
6563.476562	-45.719307
6564.453125	-46.927574
6565.429688	-47.128227
6566.406250	-47.441761
6567.382812	-47.347435
6568.359375	-46.618759
6569.335938	-47.649147
6570.312500	-47.128716
6571.289062	-46.610062
6572.265625	-46.663311
6573.242188	-46.738899
6574.218750	-47.161148
6575.195312	-46.450233
6576.171875	-46.899990
6577.148438	-46.202641
6578.125000	-46.917152
6579.101562	-46.220913
6580.078125	-46.729328
6581.054688	-47.353699
6582.031250	-47.183739
6583.007812	-46.807606
6583.984375	-45.987495
6584.960938	-47.079498
6585.937500	-46.363705
6586.914062	-46.637459
6587.890625	-46.997963
6588.867188	-47.075409
6589.843750	-47.159241
6590.820312	-46.466526
6591.796875	-46.869335
6592.773438	-47.161922
6593.750000	-46.060986
6594.726562	-46.797329
6595.703125	-46.900513
6596.679688	-46.696793
6597.656250	-46.817631
6598.632812	-46.562447
6599.609375	-47.583492
6600.585938	-47.081772
6601.562500	-46.667305
6602.539062	-46.586788
6603.515625	-46.321007
6604.492188	-46.293964
6605.468750	-47.782104
6606.445312	-47.321709
6607.421875	-47.022175
6608.398438	-46.893387
6609.375000	-46.811844
6610.351562	-46.730515
6611.328125	-47.163498
6612.304688	-47.092495
6613.281250	-46.679386
6614.257812	-46.314308
6615.234375	-46.869846
6616.210938	-47.281925
6617.187500	-46.688343
6618.164062	-47.068451
6619.140625	-47.155983
6620.117188	-46.393749
6621.093750	-47.187080
6622.070312	-46.674168
6623.046875	-46.540283
6624.023438	-47.254974
6625.000000	-47.825897
6625.976562	-46.867973
6626.953125	-46.932140
6627.929688	-46.771076
6628.906250	-46.635563
6629.882812	-47.311710
6630.859375	-46.545010
6631.835938	-47.286518
6632.812500	-46.390152
6633.789062	-47.120106
6634.765625	-46.500568
6635.742188	-47.270969
6636.718750	-47.340065
6637.695312	-46.731747
6638.671875	-47.305458
6639.648438	-46.361259
6640.625000	-46.943783
6641.601562	-47.215218
6642.578125	-46.130920
6643.554688	-47.002567
6644.531250	-47.712509
6645.507812	-46.910229
6646.484375	-47.170738
6647.460938	-46.587112
6648.437500	-46.446419
6649.414062	-47.384991
6650.390625	-47.108555
6651.367188	-47.829273
6652.343750	-47.608635
6653.320312	-48.295418
6654.296875	-47.517632
6655.273438	-46.798668
6656.250000	-47.129597
6657.226562	-46.934307
6658.203125	-46.818695
6659.179688	-47.246597
6660.156250	-46.284317
6661.132812	-47.548168
6662.109375	-48.130527
6663.085938	-47.326485
6664.062500	-46.702839
6665.039062	-46.847752
6666.015625	-46.688122
6666.992188	-46.655663
6667.968750	-46.594925
6668.945312	-47.380257
6669.921875	-46.125568
6670.898438	-47.138584
6671.875000	-47.816936
6672.851562	-45.790947
6673.828125	-46.015156
6674.804688	-46.610901
6675.781250	-47.052456
6676.757812	-46.440449
6677.734375	-46.354687
6678.710938	-47.000889
6679.687500	-47.174328
6680.664062	-46.431892
6681.640625	-47.578804
6682.617188	-46.935547
6683.593750	-46.750832
6684.570312	-46.874874
6685.546875	-46.774288
6686.523438	-46.540249
6687.500000	-46.872032
6688.476562	-47.331242
6689.453125	-46.576633
6690.429688	-46.794273
6691.406250	-46.600445
6692.382812	-46.809292
6693.359375	-46.705135
6694.335938	-47.386280
6695.312500	-47.058266
6696.289062	-47.125401
6697.265625	-47.030895
6698.242188	-46.884300
6699.218750	-46.982697
6700.195312	-46.476192
6701.171875	-46.854828
6702.148438	-47.034401
6703.125000	-46.407082
6704.101562	-46.738377
6705.078125	-46.222813
6706.054688	-46.360538
6707.031250	-47.321861
6708.007812	-47.784218
6708.984375	-46.506676
6709.960938	-46.547626
6710.937500	-47.020985
6711.914062	-47.355896
6712.890625	-47.735970
6713.867188	-46.790852
6714.843750	-46.632118
6715.820312	-47.411800
6716.796875	-47.460491
6717.773438	-47.392601
6718.750000	-46.482006
6719.726562	-46.468418
6720.703125	-46.083652
6721.679688	-46.629124
6722.656250	-47.235451
6723.632812	-47.148823
6724.609375	-47.056709
6725.585938	-46.447277
6726.562500	-47.249474
6727.539062	-47.084538
6728.515625	-46.615490
6729.492188	-46.889122
6730.468750	-46.427101
6731.445312	-46.073540
6732.421875	-46.909061
6733.398438	-46.468746
6734.375000	-47.128788
6735.351562	-47.418945
6736.328125	-46.611763
6737.304688	-47.054676
6738.281250	-46.758366
6739.257812	-47.096836
6740.234375	-46.981712
6741.210938	-46.611439
6742.187500	-46.254860
6743.164062	-46.465073
6744.140625	-46.779636
6745.117188	-46.923916
6746.093750	-46.266823
6747.070312	-46.776825
6748.046875	-46.495564
6749.023438	-46.613125
6750.000000	-46.886677
6750.976562	-46.846779
6751.953125	-46.475677
6752.929688	-46.837273
6753.906250	-47.297535
6754.882812	-46.686932
6755.859375	-46.583843
6756.835938	-47.251762
6757.812500	-47.277515
6758.789062	-47.230358
6759.765625	-46.389236
6760.742188	-46.300514
6761.718750	-47.200092
6762.695312	-46.080181
6763.671875	-47.233002
6764.648438	-47.798088
6765.625000	-46.680000
6766.601562	-47.053677
6767.578125	-47.302105
6768.554688	-47.319313
6769.531250	-47.088390
6770.507812	-46.355171
6771.484375	-46.420528
6772.460938	-46.799034
6773.437500	-47.002979
6774.414062	-46.779110
6775.390625	-47.417892
6776.367188	-46.780811
6777.343750	-46.776127
6778.320312	-46.955589
6779.296875	-46.965073
6780.273438	-47.728710
6781.250000	-47.203423
6782.226562	-47.064362
6783.203125	-47.402733
6784.179688	-46.873737
6785.156250	-47.673561
6786.132812	-47.752045
6787.109375	-47.748455
6788.085938	-46.773514
6789.062500	-47.453487
6790.039062	-47.291328
6791.015625	-47.462082
6791.992188	-46.485832
6792.968750	-47.068386
6793.945312	-46.844425
6794.921875	-47.083961
6795.898438	-47.614437
6796.875000	-46.848869
6797.851562	-46.581249
6798.828125	-46.295536
6799.804688	-46.954330
6800.781250	-46.994324
6801.757812	-47.617287
6802.734375	-47.027164
6803.710938	-47.382633
6804.687500	-47.399532
6805.664062	-47.420006
6806.640625	-46.625347
6807.617188	-47.252487
6808.593750	-47.210850
6809.570312	-46.778957
6810.546875	-47.426357
6811.523438	-47.639736
6812.500000	-47.192993
6813.476562	-47.374763
6814.453125	-47.395920
6815.429688	-46.683380
6816.406250	-46.979198
6817.382812	-46.930553
6818.359375	-46.837700
6819.335938	-46.770844
6820.312500	-46.587170
6821.289062	-47.008598
6822.265625	-47.216095
6823.242188	-46.702137
6824.218750	-46.424984
6825.195312	-46.223454
6826.171875	-48.081440
6827.148438	-47.068748
6828.125000	-46.525669
6829.101562	-46.573383
6830.078125	-47.155296
6831.054688	-47.058533
6832.031250	-46.829693
6833.007812	-47.228600
6833.984375	-46.692089
6834.960938	-47.049622
6835.937500	-46.649464
6836.914062	-47.603813
6837.890625	-47.187500
6838.867188	-47.346443
6839.843750	-47.628838
6840.820312	-47.245560
6841.796875	-46.317127
6842.773438	-46.738308
6843.750000	-47.143135
6844.726562	-47.473560
6845.703125	-47.870937
6846.679688	-47.610413
6847.656250	-47.303589
6848.632812	-47.130184
6849.609375	-45.952271
6850.585938	-46.543846
6851.562500	-47.006607
6852.539062	-46.696449
6853.515625	-46.949722
6854.492188	-46.994518
6855.468750	-46.195827
6856.445312	-47.543499
6857.421875	-46.883274
6858.398438	-47.015362
6859.375000	-46.322388
6860.351562	-47.317150
6861.328125	-46.769711
6862.304688	-47.750896
6863.281250	-46.889812
6864.257812	-46.693810
6865.234375	-46.803612
6866.210938	-46.673515
6867.187500	-46.889439
6868.164062	-47.195217
6869.140625	-47.176517
6870.117188	-46.938049
6871.093750	-47.381306
6872.070312	-47.717304
6873.046875	-47.321636
6874.023438	-47.856773
6875.000000	-47.374016
6875.976562	-47.205883
6876.953125	-46.876289
6877.929688	-47.520645
6878.906250	-46.900040
6879.882812	-47.413284
6880.859375	-46.462315
6881.835938	-46.756088
6882.812500	-46.987774
6883.789062	-46.816914
6884.765625	-47.179825
6885.742188	-46.873466
6886.718750	-46.953918
6887.695312	-46.820362
6888.671875	-46.339767
6889.648438	-46.752613
6890.625000	-46.713554
6891.601562	-46.905777
6892.578125	-46.665718
6893.554688	-46.840179
6894.531250	-46.376564
6895.507812	-46.963039
6896.484375	-47.181171
6897.460938	-47.297649
6898.437500	-46.718021
6899.414062	-47.135765
6900.390625	-47.652420
6901.367188	-46.961124
6902.343750	-46.854214
6903.320312	-46.618034
6904.296875	-47.276901
6905.273438	-46.769676
6906.250000	-46.805363
6907.226562	-47.034473
6908.203125	-47.668766
6909.179688	-47.057762
6910.156250	-46.912056
6911.132812	-46.794476
6912.109375	-46.939758
6913.085938	-47.215324
6914.062500	-46.494186
6915.039062	-47.050564
6916.015625	-46.519192
6916.992188	-47.433849
6917.968750	-47.404129
6918.945312	-47.361046
6919.921875	-47.291855
6920.898438	-46.542717
6921.875000	-47.521343
6922.851562	-47.309334
6923.828125	-47.178581
6924.804688	-46.731926
6925.781250	-46.892418
6926.757812	-46.508747
6927.734375	-46.619370
6928.710938	-46.955711
6929.687500	-46.632561
6930.664062	-47.388119
6931.640625	-47.017033
6932.617188	-46.362438
6933.593750	-46.886238
6934.570312	-47.514000
6935.546875	-47.801945
6936.523438	-46.425743
6937.500000	-46.681206
6938.476562	-46.528561
6939.453125	-46.303223
6940.429688	-46.737152
6941.406250	-46.796032
6942.382812	-47.057495
6943.359375	-46.622936
6944.335938	-46.688881
6945.312500	-47.178658
6946.289062	-46.240879
6947.265625	-46.771938
6948.242188	-47.098839
6949.218750	-47.550049
6950.195312	-46.679295
6951.171875	-47.109261
6952.148438	-47.385632
6953.125000	-47.702232
6954.101562	-47.303261
6955.078125	-47.009666
6956.054688	-47.012699
6957.031250	-47.619755
6958.007812	-46.313591
6958.984375	-47.119358
6959.960938	-46.844269
6960.937500	-47.034134
6961.914062	-47.072659
6962.890625	-46.458534
6963.867188	-45.623085
6964.843750	-47.086956
6965.820312	-46.917217
6966.796875	-46.769329
6967.773438	-46.881042
6968.750000	-47.471996
6969.726562	-46.638687
6970.703125	-46.974789
6971.679688	-47.196896
6972.656250	-46.652966
6973.632812	-46.703987
6974.609375	-46.630711
6975.585938	-47.377823
6976.562500	-46.844837
6977.539062	-47.071442
6978.515625	-47.154694
6979.492188	-46.851685
6980.468750	-47.088375
6981.445312	-47.096027
6982.421875	-47.389992
6983.398438	-47.075264
6984.375000	-46.617901
6985.351562	-47.577213
6986.328125	-47.325657
6987.304688	-47.184818
6988.281250	-47.633606
6989.257812	-47.236660
6990.234375	-46.583313
6991.210938	-47.227428
6992.187500	-47.389706
6993.164062	-47.401878
6994.140625	-47.213150
6995.117188	-47.768665
6996.093750	-47.403305
6997.070312	-46.420784
6998.046875	-46.679268
6999.023438	-45.810780
7000.000000	-46.578674
7000.976562	-46.550488
7001.953125	-46.372128
7002.929688	-47.105396
7003.906250	-46.891232
7004.882812	-47.142139
7005.859375	-46.790611
7006.835938	-47.150803
7007.812500	-47.310810
7008.789062	-47.574821
7009.765625	-47.168198
7010.742188	-47.151199
7011.718750	-46.478073
7012.695312	-47.378017
7013.671875	-46.909027
7014.648438	-47.820385
7015.625000	-47.604008
7016.601562	-47.356106
7017.578125	-46.921894
7018.554688	-46.988052
7019.531250	-46.351665
7020.507812	-46.997879
7021.484375	-47.052330
7022.460938	-47.106632
7023.437500	-47.115585
7024.414062	-46.975300
7025.390625	-47.472843
7026.367188	-46.714478
7027.343750	-47.314709
7028.320312	-46.406078
7029.296875	-46.956985
7030.273438	-47.152309
7031.250000	-46.511703
7032.226562	-46.454613
7033.203125	-46.235905
7034.179688	-46.584553
7035.156250	-46.893574
7036.132812	-46.246162
7037.109375	-46.836296
7038.085938	-46.613445
7039.062500	-46.942852
7040.039062	-47.380878
7041.015625	-45.663815
7041.992188	-46.061436
7042.968750	-46.506290
7043.945312	-46.405762
7044.921875	-47.171097
7045.898438	-46.901222
7046.875000	-46.988445
7047.851562	-46.859516
7048.828125	-46.605515
7049.804688	-47.303078
7050.781250	-46.901482
7051.757812	-47.060848
7052.734375	-46.505253
7053.710938	-46.421036
7054.687500	-47.047218
7055.664062	-47.336029
7056.640625	-47.476906
7057.617188	-47.030254
7058.593750	-46.479160
7059.570312	-46.782532
7060.546875	-47.307762
7061.523438	-48.338478
7062.500000	-47.228172
7063.476562	-47.399841
7064.453125	-46.945171
7065.429688	-46.518497
7066.406250	-47.413116
7067.382812	-47.101654
7068.359375	-46.736492
7069.335938	-47.631645
7070.312500	-47.285980
7071.289062	-46.509659
7072.265625	-46.959866
7073.242188	-46.545879
7074.218750	-47.185307
7075.195312	-46.801647
7076.171875	-46.336102
7077.148438	-46.431427
7078.125000	-46.967968
7079.101562	-47.039982
7080.078125	-47.251652
7081.054688	-47.160210
7082.031250	-47.258648
7083.007812	-46.530987
7083.984375	-46.377991
7084.960938	-46.220722
7085.937500	-46.560108
7086.914062	-46.767544
7087.890625	-46.633957
7088.867188	-46.761696
7089.843750	-47.409462
7090.820312	-46.906635
7091.796875	-47.057858
7092.773438	-47.572342
7093.750000	-47.887970
7094.726562	-47.384651
7095.703125	-47.254932
7096.679688	-46.949402
7097.656250	-46.571766
7098.632812	-46.444675
7099.609375	-47.828876
7100.585938	-46.441555
7101.562500	-46.648628
7102.539062	-46.534416
7103.515625	-47.427490
7104.492188	-46.340435
7105.468750	-46.606190
7106.445312	-46.715607
7107.421875	-47.337635
7108.398438	-47.035625
7109.375000	-46.671082
7110.351562	-47.088810
7111.328125	-46.573250
7112.304688	-46.969307
7113.281250	-47.076698
7114.257812	-46.417183
7115.234375	-47.255684
7116.210938	-47.125832
7117.187500	-46.354321
7118.164062	-47.668766
7119.140625	-46.223312
7120.117188	-47.057438
7121.093750	-47.522015
7122.070312	-46.650463
7123.046875	-46.612274
7124.023438	-46.334709
7125.000000	-47.313053
7125.976562	-47.149307
7126.953125	-46.161678
7127.929688	-47.421921
7128.906250	-46.681419
7129.882812	-47.112255
7130.859375	-46.343952
7131.835938	-46.424686
7132.812500	-46.374020
7133.789062	-46.934078
7134.765625	-47.202198
7135.742188	-46.434818
7136.718750	-46.605888
7137.695312	-46.673103
7138.671875	-46.809929
7139.648438	-46.283371
7140.625000	-46.755714
7141.601562	-46.699608
7142.578125	-47.018387
7143.554688	-46.512844
7144.531250	-47.380829
7145.507812	-47.149548
7146.484375	-46.650494
7147.460938	-47.031727
7148.437500	-47.409256
7149.414062	-46.595051
7150.390625	-47.634426
7151.367188	-46.624084
7152.343750	-47.452740
7153.320312	-46.407257
7154.296875	-46.616707
7155.273438	-46.287876
7156.250000	-47.312122
7157.226562	-47.573574
7158.203125	-47.326893
7159.179688	-47.166260
7160.156250	-47.155594
7161.132812	-46.260517
7162.109375	-46.702583
7163.085938	-46.975327
7164.062500	-46.952290
7165.039062	-46.379379
7166.015625	-46.561077
7166.992188	-46.123524
7167.968750	-46.441200
7168.945312	-47.377129
7169.921875	-47.080563
7170.898438	-46.793056
7171.875000	-46.955994
7172.851562	-47.192020
7173.828125	-46.861496
7174.804688	-46.558601
7175.781250	-46.693363
7176.757812	-46.964046
7177.734375	-47.063843
7178.710938	-47.071190
7179.687500	-47.321899
7180.664062	-47.082127
7181.640625	-46.937908
7182.617188	-47.364193
7183.593750	-46.700745
7184.570312	-47.222958
7185.546875	-47.429108
7186.523438	-48.104904
7187.500000	-46.895069
7188.476562	-46.384441
7189.453125	-47.182335
7190.429688	-46.772812
7191.406250	-47.305290
7192.382812	-46.957912
7193.359375	-46.334248
7194.335938	-46.562206
7195.312500	-46.973923
7196.289062	-46.635380
7197.265625	-46.866867
7198.242188	-47.057503
7199.218750	-47.059723
7200.195312	-46.894302
7201.171875	-47.305576
7202.148438	-47.953705
7203.125000	-46.939068
7204.101562	-47.060200
7205.078125	-46.845695
7206.054688	-47.787476
7207.031250	-47.546844
7208.007812	-46.633484
7208.984375	-47.276497
7209.960938	-46.865314
7210.937500	-46.904533
7211.914062	-46.474697
7212.890625	-46.810467
7213.867188	-46.293831
7214.843750	-46.483814
7215.820312	-46.425327
7216.796875	-46.480053
7217.773438	-46.678574
7218.750000	-47.184212
7219.726562	-46.804543
7220.703125	-46.700161
7221.679688	-48.041218
7222.656250	-46.359249
7223.632812	-47.389515
7224.609375	-46.967148
7225.585938	-47.393551
7226.562500	-46.433025
7227.539062	-46.592823
7228.515625	-46.802029
7229.492188	-47.636013
7230.468750	-47.082607
7231.445312	-46.592701
7232.421875	-46.640186
7233.398438	-46.484684
7234.375000	-46.859463
7235.351562	-46.511143
7236.328125	-47.419029
7237.304688	-47.182182
7238.281250	-46.589207
7239.257812	-46.747562
7240.234375	-46.716194
7241.210938	-47.278294
7242.187500	-47.424686
7243.164062	-46.990734
7244.140625	-47.135643
7245.117188	-47.559780
7246.093750	-46.780365
7247.070312	-46.891380
7248.046875	-47.185070
7249.023438	-46.730972
7250.000000	-47.170914
7250.976562	-47.529140
7251.953125	-46.295685
7252.929688	-46.544296
7253.906250	-46.617893
7254.882812	-46.969643
7255.859375	-46.586857
7256.835938	-46.158554
7257.812500	-45.614250
7258.789062	-46.465488
7259.765625	-46.486225
7260.742188	-47.086216
7261.718750	-46.863949
7262.695312	-47.835308
7263.671875	-46.654858
7264.648438	-47.038483
7265.625000	-47.077724
7266.601562	-47.129955
7267.578125	-46.808498
7268.554688	-46.537556
7269.531250	-46.445435
7270.507812	-46.457684
7271.484375	-46.608845
7272.460938	-46.746044
7273.437500	-46.667873
7274.414062	-47.594490
7275.390625	-46.488247
7276.367188	-47.018257
7277.343750	-46.661392
7278.320312	-47.067322
7279.296875	-47.807503
7280.273438	-47.121788
7281.250000	-46.217766
7282.226562	-47.291988
7283.203125	-47.673038
7284.179688	-46.836590
7285.156250	-46.749763
7286.132812	-47.199291
7287.109375	-47.311306
7288.085938	-47.416977
7289.062500	-47.251133
7290.039062	-47.301086
7291.015625	-47.048218
7291.992188	-46.582062
7292.968750	-46.255791
7293.945312	-46.426044
7294.921875	-46.740501
7295.898438	-47.605255
7296.875000	-46.927433
7297.851562	-47.746212
7298.828125	-47.400539
7299.804688	-46.918293
7300.781250	-46.295101
7301.757812	-46.894337
7302.734375	-46.836956
7303.710938	-47.303162
7304.687500	-46.776028
7305.664062	-46.697071
7306.640625	-46.685188
7307.617188	-46.402153
7308.593750	-47.149712
7309.570312	-46.991604
7310.546875	-47.387600
7311.523438	-46.603764
7312.500000	-46.633018
7313.476562	-46.638103
7314.453125	-46.282650
7315.429688	-47.123638
7316.406250	-46.619999
7317.382812	-47.052486
7318.359375	-46.539261
7319.335938	-47.334625
7320.312500	-46.976707
7321.289062	-47.345097
7322.265625	-47.583393
7323.242188	-47.245792
7324.218750	-47.752605
7325.195312	-47.009769
7326.171875	-47.160442
7327.148438	-47.021709
7328.125000	-46.962650
7329.101562	-46.622429
7330.078125	-46.809673
7331.054688	-47.523823
7332.031250	-47.645817
7333.007812	-47.161835
7333.984375	-46.230953
7334.960938	-46.865837
7335.937500	-46.371151
7336.914062	-47.300076
7337.890625	-46.596386
7338.867188	-46.790764
7339.843750	-47.445366
7340.820312	-47.254669
7341.796875	-46.269695
7342.773438	-46.258419
7343.750000	-47.298916
7344.726562	-46.621437
7345.703125	-46.846397
7346.679688	-47.739960
7347.656250	-47.063087
7348.632812	-46.712135
7349.609375	-46.369431
7350.585938	-46.275337
7351.562500	-47.117584
7352.539062	-47.348160
7353.515625	-46.855251
7354.492188	-46.945744
7355.468750	-46.748672
7356.445312	-47.269691
7357.421875	-47.616501
7358.398438	-47.481392
7359.375000	-46.877541
7360.351562	-47.044853
7361.328125	-46.579086
7362.304688	-46.927799
7363.281250	-47.538422
7364.257812	-46.869198
7365.234375	-47.029236
7366.210938	-47.180836
7367.187500	-46.320816
7368.164062	-46.572132
7369.140625	-46.964756
7370.117188	-47.373363
7371.093750	-47.200512
7372.070312	-46.852379
7373.046875	-46.505341
7374.023438	-46.363033
7375.000000	-47.477043
7375.976562	-47.338032
7376.953125	-46.875008
7377.929688	-47.565811
7378.906250	-46.532578
7379.882812	-46.609589
7380.859375	-47.206062
7381.835938	-46.691547
7382.812500	-46.316936
7383.789062	-46.593967
7384.765625	-47.156029
7385.742188	-47.414654
7386.718750	-46.421303
7387.695312	-46.913620
7388.671875	-47.661404
7389.648438	-46.597427
7390.625000	-46.526096
7391.601562	-48.112995
7392.578125	-47.316906
7393.554688	-47.208515
7394.531250	-47.449165
7395.507812	-46.799576
7396.484375	-47.071175
7397.460938	-47.250660
7398.437500	-46.741287
7399.414062	-47.339550
7400.390625	-46.566841
7401.367188	-46.047661
7402.343750	-47.669853
7403.320312	-46.267311
7404.296875	-47.398552
7405.273438	-46.947895
7406.250000	-46.872391
7407.226562	-47.011230
7408.203125	-47.544586
7409.179688	-47.171196
7410.156250	-47.325249
7411.132812	-47.170265
7412.109375	-46.908863
7413.085938	-46.747101
7414.062500	-46.016251
7415.039062	-46.758129
7416.015625	-47.265198
7416.992188	-46.139366
7417.968750	-47.049820
7418.945312	-47.833832
7419.921875	-46.421398
7420.898438	-46.257389
7421.875000	-46.999447
7422.851562	-46.799232
7423.828125	-47.515778
7424.804688	-46.578022
7425.781250	-46.647533
7426.757812	-46.929783
7427.734375	-47.478958
7428.710938	-46.756462
7429.687500	-47.074097
7430.664062	-47.293648
7431.640625	-47.352955
7432.617188	-47.381905
7433.593750	-46.903019
7434.570312	-46.998459
7435.546875	-46.650490
7436.523438	-46.776104
7437.500000	-47.618080
7438.476562	-46.788223
7439.453125	-46.496540
7440.429688	-46.412445
7441.406250	-47.226398
7442.382812	-47.213734
7443.359375	-46.778534
7444.335938	-46.717403
7445.312500	-46.858273
7446.289062	-47.331356
7447.265625	-46.636261
7448.242188	-46.675011
7449.218750	-46.155403
7450.195312	-47.309044
7451.171875	-47.332340
7452.148438	-47.012852
7453.125000	-46.406384
7454.101562	-47.064434
7455.078125	-46.803513
7456.054688	-47.323563
7457.031250	-47.272190
7458.007812	-47.317650
7458.984375	-47.051216
7459.960938	-47.485970
7460.937500	-46.616215
7461.914062	-46.541042
7462.890625	-46.582813
7463.867188	-46.765179
7464.843750	-46.414383
7465.820312	-47.015076
7466.796875	-47.639610
7467.773438	-47.489796
7468.750000	-47.036579
7469.726562	-47.254993
7470.703125	-46.963676
7471.679688	-46.438530
7472.656250	-46.750763
7473.632812	-46.649250
7474.609375	-47.127682
7475.585938	-47.186626
7476.562500	-46.755444
7477.539062	-46.347446
7478.515625	-46.746777
7479.492188	-47.344528
7480.468750	-47.116310
7481.445312	-47.847527
7482.421875	-46.918919
7483.398438	-46.452358
7484.375000	-46.432384
7485.351562	-46.678085
7486.328125	-46.630447
7487.304688	-47.056267
7488.281250	-47.127167
7489.257812	-46.513874
7490.234375	-46.765675
7491.210938	-46.165619
7492.187500	-45.872368
7493.164062	-47.676727
7494.140625	-46.822853
7495.117188	-46.743000
7496.093750	-47.574081
7497.070312	-47.051868
7498.046875	-46.990650
7499.023438	-46.732399
7500.000000	-46.653881
7500.976562	-46.766350
7501.953125	-46.388111
7502.929688	-47.002396
7503.906250	-47.036373
7504.882812	-46.974155
7505.859375	-46.838833
7506.835938	-46.679264
7507.812500	-46.957729
7508.789062	-47.103348
7509.765625	-46.168373
7510.742188	-46.450089
7511.718750	-46.903324
7512.695312	-47.052265
7513.671875	-47.196651
7514.648438	-46.889812
7515.625000	-47.131359
7516.601562	-47.032639
7517.578125	-47.216240
7518.554688	-47.327374
7519.531250	-47.222939
7520.507812	-46.432957
7521.484375	-47.016949
7522.460938	-46.942924
7523.437500	-46.197292
7524.414062	-46.886345
7525.390625	-46.951595
7526.367188	-47.013191
7527.343750	-46.215054
7528.320312	-47.487938
7529.296875	-46.256840
7530.273438	-47.378094
7531.250000	-47.107018
7532.226562	-47.364395
7533.203125	-46.375011
7534.179688	-47.274502
7535.156250	-46.093849
7536.132812	-46.560116
7537.109375	-46.729172
7538.085938	-46.879757
7539.062500	-46.368450
7540.039062	-47.483353
7541.015625	-47.729733
7541.992188	-47.209118
7542.968750	-46.424721
7543.945312	-46.765461
7544.921875	-47.275303
7545.898438	-45.856434
7546.875000	-45.993210
7547.851562	-46.836624
7548.828125	-46.556793
7549.804688	-46.504723
7550.781250	-47.166077
7551.757812	-46.807682
7552.734375	-46.075886
7553.710938	-46.500187
7554.687500	-47.117558
7555.664062	-47.592983
7556.640625	-46.705463
7557.617188	-46.655960
7558.593750	-47.443184
7559.570312	-47.233543
7560.546875	-47.090778
7561.523438	-47.338894
7562.500000	-46.125580
7563.476562	-46.899391
7564.453125	-47.246876
7565.429688	-47.030449
7566.406250	-46.873901
7567.382812	-46.714539
7568.359375	-46.971493
7569.335938	-46.869205
7570.312500	-47.081215
7571.289062	-46.775448
7572.265625	-46.507866
7573.242188	-46.995018
7574.218750	-46.869560
7575.195312	-47.240166
7576.171875	-47.427906
7577.148438	-46.595169
7578.125000	-47.801998
7579.101562	-47.049885
7580.078125	-46.586662
7581.054688	-46.366188
7582.031250	-46.948887
7583.007812	-46.794308
7583.984375	-47.091591
7584.960938	-47.739105
7585.937500	-46.636738
7586.914062	-47.621655
7587.890625	-46.891602
7588.867188	-45.466732
7589.843750	-46.777042
7590.820312	-47.231659
7591.796875	-47.139297
7592.773438	-47.085152
7593.750000	-47.819733
7594.726562	-47.442654
7595.703125	-47.404087
7596.679688	-47.517281
7597.656250	-47.157410
7598.632812	-46.997967
7599.609375	-48.427986
7600.585938	-47.418739
7601.562500	-46.698013
7602.539062	-46.548538
7603.515625	-46.692471
7604.492188	-47.108261
7605.468750	-47.312580
7606.445312	-47.171345
7607.421875	-46.524658
7608.398438	-47.188793
7609.375000	-46.521782
7610.351562	-46.958557
7611.328125	-47.283329
7612.304688	-46.946125
7613.281250	-47.008465
7614.257812	-46.901524
7615.234375	-47.304466
7616.210938	-46.634136
7617.187500	-47.075787
7618.164062	-47.054855
7619.140625	-46.614006
7620.117188	-47.026020
7621.093750	-47.251919
7622.070312	-47.410175
7623.046875	-46.700184
7624.023438	-46.573341
7625.000000	-46.867432
7625.976562	-47.298046
7626.953125	-47.290077
7627.929688	-46.930279
7628.906250	-47.003807
7629.882812	-48.115437
7630.859375	-47.387032
7631.835938	-47.044033
7632.812500	-46.325436
7633.789062	-46.207100
7634.765625	-46.331463
7635.742188	-46.793655
7636.718750	-47.044418
7637.695312	-47.060455
7638.671875	-46.788578
7639.648438	-46.799732
7640.625000	-47.112022
7641.601562	-47.008732
7642.578125	-47.160789
7643.554688	-47.048710
7644.531250	-46.707958
7645.507812	-46.201057
7646.484375	-47.136021
7647.460938	-47.304089
7648.437500	-47.032463
7649.414062	-46.887543
7650.390625	-47.047771
7651.367188	-46.816708
7652.343750	-47.025799
7653.320312	-47.245609
7654.296875	-47.412434
7655.273438	-46.771904
7656.250000	-46.597069
7657.226562	-46.854000
7658.203125	-47.484745
7659.179688	-47.325878
7660.156250	-47.435013
7661.132812	-47.063591
7662.109375	-46.753078
7663.085938	-47.097145
7664.062500	-47.066700
7665.039062	-46.547779
7666.015625	-46.486412
7666.992188	-47.197540
7667.968750	-46.570667
7668.945312	-47.039974
7669.921875	-45.991257
7670.898438	-47.564953
7671.875000	-46.876820
7672.851562	-47.215698
7673.828125	-47.767841
7674.804688	-47.081936
7675.781250	-46.238903
7676.757812	-46.271893
7677.734375	-46.731689
7678.710938	-46.572243
7679.687500	-46.682030
7680.664062	-46.531345
7681.640625	-47.582966
7682.617188	-46.470863
7683.593750	-46.521477
7684.570312	-47.703033
7685.546875	-46.919197
7686.523438	-47.794422
7687.500000	-46.850002
7688.476562	-46.506638
7689.453125	-46.990116
7690.429688	-47.101505
7691.406250	-47.318291
7692.382812	-47.615097
7693.359375	-47.058052
7694.335938	-46.491383
7695.312500	-47.068241
7696.289062	-46.634247
7697.265625	-46.258224
7698.242188	-47.177322
7699.218750	-46.383167
7700.195312	-46.747387
7701.171875	-47.357906
7702.148438	-48.091908
7703.125000	-47.270279
7704.101562	-46.892754
7705.078125	-46.554935
7706.054688	-46.333263
7707.031250	-47.132103
7708.007812	-47.535023
7708.984375	-46.530041
7709.960938	-47.441422
7710.937500	-47.849049
7711.914062	-47.868206
7712.890625	-47.028709
7713.867188	-46.357960
7714.843750	-46.904633
7715.820312	-47.189198
7716.796875	-47.276039
7717.773438	-46.745426
7718.750000	-47.322083
7719.726562	-46.899364
7720.703125	-46.784348
7721.679688	-46.561634
7722.656250	-46.066727
7723.632812	-47.157230
7724.609375	-47.133537
7725.585938	-47.098694
7726.562500	-47.068596
7727.539062	-47.523602
7728.515625	-47.160103
7729.492188	-46.767132
7730.468750	-47.098415
7731.445312	-46.923676
7732.421875	-46.182301
7733.398438	-46.538219
7734.375000	-46.575939
7735.351562	-46.587490
7736.328125	-47.236153
7737.304688	-47.337418
7738.281250	-46.785778
7739.257812	-46.734669
7740.234375	-46.906052
7741.210938	-46.535038
7742.187500	-46.246952
7743.164062	-47.018131
7744.140625	-46.819679
7745.117188	-46.408268
7746.093750	-46.314186
7747.070312	-46.589542
7748.046875	-47.119350
7749.023438	-46.937893
7750.000000	-46.962612
7750.976562	-46.790131
7751.953125	-47.291878
7752.929688	-47.337048
7753.906250	-46.957039
7754.882812	-47.166008
7755.859375	-46.851528
7756.835938	-47.552181
7757.812500	-47.025249
7758.789062	-47.104961
7759.765625	-46.837509
7760.742188	-47.306324
7761.718750	-46.804543
7762.695312	-46.617371
7763.671875	-47.295273
7764.648438	-46.906040
7765.625000	-46.675339
7766.601562	-46.883930
7767.578125	-46.878944
7768.554688	-47.667408
7769.531250	-47.340950
7770.507812	-46.741123
7771.484375	-46.537407
7772.460938	-46.397591
7773.437500	-46.857189
7774.414062	-46.886921
7775.390625	-46.969898
7776.367188	-46.978516
7777.343750	-47.010571
7778.320312	-46.969467
7779.296875	-47.221409
7780.273438	-47.253979
7781.250000	-47.663731
7782.226562	-46.539219
7783.203125	-46.980202
7784.179688	-46.707676
7785.156250	-47.083702
7786.132812	-46.596123
7787.109375	-46.490162
7788.085938	-47.188824
7789.062500	-46.303673
7790.039062	-47.453747
7791.015625	-46.822258
7791.992188	-46.725021
7792.968750	-46.160221
7793.945312	-46.463852
7794.921875	-46.762962
7795.898438	-46.570923
7796.875000	-47.012863
7797.851562	-47.329983
7798.828125	-46.723259
7799.804688	-47.315777
7800.781250	-46.936100
7801.757812	-46.951195
7802.734375	-46.996616
7803.710938	-46.690708
7804.687500	-47.674362
7805.664062	-46.992157
7806.640625	-46.794144
7807.617188	-46.983803
7808.593750	-47.332809
7809.570312	-47.187279
7810.546875	-47.035149
7811.523438	-47.161572
7812.500000	-47.655132
7813.476562	-46.760750
7814.453125	-46.495575
7815.429688	-47.225216
7816.406250	-47.217686
7817.382812	-46.965420
7818.359375	-47.153183
7819.335938	-47.661106
7820.312500	-46.437366
7821.289062	-46.544197
7822.265625	-47.094810
7823.242188	-46.604675
7824.218750	-47.102859
7825.195312	-46.494293
7826.171875	-47.020592
7827.148438	-46.556931
7828.125000	-47.166653
7829.101562	-46.739590
7830.078125	-47.417469
7831.054688	-46.994846
7832.031250	-47.076633
7833.007812	-47.168373
7833.984375	-47.254337
7834.960938	-47.498535
7835.937500	-46.868416
7836.914062	-47.621902
7837.890625	-47.436790
7838.867188	-46.702583
7839.843750	-46.520195
7840.820312	-46.174595
7841.796875	-47.119282
7842.773438	-47.116943
7843.750000	-47.216015
7844.726562	-46.932499
7845.703125	-47.354061
7846.679688	-46.820255
7847.656250	-46.858196
7848.632812	-46.249706
7849.609375	-46.357796
7850.585938	-46.366051
7851.562500	-46.755589
7852.539062	-46.580288
7853.515625	-46.626457
7854.492188	-46.445030
7855.468750	-47.233231
7856.445312	-46.480034
7857.421875	-46.732922
7858.398438	-46.632729
7859.375000	-47.327381
7860.351562	-46.072849
7861.328125	-47.778900
7862.304688	-46.889778
7863.281250	-46.908779
7864.257812	-46.935486
7865.234375	-47.874649
7866.210938	-47.042683
7867.187500	-47.033703
7868.164062	-47.413788
7869.140625	-47.141888
7870.117188	-47.248718
7871.093750	-47.293255
7872.070312	-47.251057
7873.046875	-47.052628
7874.023438	-46.911022
7875.000000	-47.231770
7875.976562	-46.527576
7876.953125	-47.437256
7877.929688	-46.372360
7878.906250	-46.852745
7879.882812	-47.802139
7880.859375	-46.913029
7881.835938	-46.534313
7882.812500	-46.516369
7883.789062	-46.988373
7884.765625	-46.791733
7885.742188	-46.867287
7886.718750	-46.507072
7887.695312	-47.200481
7888.671875	-46.280266
7889.648438	-45.914055
7890.625000	-46.878441
7891.601562	-47.225487
7892.578125	-46.834118
7893.554688	-47.179371
7894.531250	-47.417610
7895.507812	-47.428589
7896.484375	-46.354713
7897.460938	-46.213654
7898.437500	-46.217144
7899.414062	-47.711685
7900.390625	-47.184155
7901.367188	-46.662781
7902.343750	-46.957714
7903.320312	-46.806927
7904.296875	-47.009167
7905.273438	-47.193691
7906.250000	-47.120464
7907.226562	-46.657337
7908.203125	-46.832859
7909.179688	-47.273113
7910.156250	-46.791233
7911.132812	-47.643295
7912.109375	-46.714542
7913.085938	-47.190838
7914.062500	-46.259571
7915.039062	-46.598351
7916.015625	-46.471298
7916.992188	-47.004536
7917.968750	-46.426342
7918.945312	-47.650532
7919.921875	-47.181194
7920.898438	-47.855690
7921.875000	-46.899879
7922.851562	-46.752747
7923.828125	-46.731663
7924.804688	-46.076939
7925.781250	-45.407841
7926.757812	-47.425144
7927.734375	-47.039639
7928.710938	-46.835468
7929.687500	-45.839378
7930.664062	-46.584053
7931.640625	-46.868526
7932.617188	-46.648701
7933.593750	-46.950932
7934.570312	-46.685291
7935.546875	-46.668228
7936.523438	-47.004906
7937.500000	-46.907742
7938.476562	-46.451187
7939.453125	-47.164986
7940.429688	-46.850727
7941.406250	-47.493549
7942.382812	-47.454926
7943.359375	-47.147732
7944.335938	-46.984699
7945.312500	-47.473049
7946.289062	-47.273289
7947.265625	-47.424725
7948.242188	-46.582890
7949.218750	-46.943447
7950.195312	-47.231792
7951.171875	-46.495781
7952.148438	-46.815506
7953.125000	-46.213173
7954.101562	-46.784050
7955.078125	-46.635147
7956.054688	-47.465488
7957.031250	-46.126312
7958.007812	-47.005222
7958.984375	-47.260452
7959.960938	-47.267899
7960.937500	-46.627945
7961.914062	-46.844452
7962.890625	-47.333515
7963.867188	-47.125435
7964.843750	-46.035538
7965.820312	-45.942638
7966.796875	-46.386604
7967.773438	-46.974464
7968.750000	-46.354492
7969.726562	-46.940468
7970.703125	-47.149559
7971.679688	-47.674015
7972.656250	-46.643364
7973.632812	-46.555630
7974.609375	-46.299126
7975.585938	-46.709843
7976.562500	-46.539509
7977.539062	-46.703583
7978.515625	-47.740959
7979.492188	-48.312553
7980.468750	-47.739861
7981.445312	-47.424686
7982.421875	-47.915493
7983.398438	-46.475578
7984.375000	-47.557255
7985.351562	-47.127827
7986.328125	-46.636890
7987.304688	-46.906998
7988.281250	-47.247139
7989.257812	-46.760643
7990.234375	-46.719193
7991.210938	-47.101566
7992.187500	-46.848934
7993.164062	-46.161377
7994.140625	-47.041946
7995.117188	-47.358723
7996.093750	-47.308407
7997.070312	-47.107182
7998.046875	-46.467358
7999.023438	-46.730526
