Frequency (Hz)	Level (dB)
0.976562	-51.132824
1.953125	-51.020893
2.929688	-52.934948
3.906250	-51.819313
4.882812	-51.768436
5.859375	-51.261959
6.835938	-51.383240
7.812500	-51.587498
8.789062	-51.832573
9.765625	-52.813305
10.742188	-52.062553
11.718750	-51.756741
12.695312	-51.354652
13.671875	-52.021450
14.648438	-51.564770
15.625000	-51.773708
16.601562	-51.942841
17.578125	-52.259785
18.554688	-52.151997
19.531250	-51.727787
20.507812	-51.335621
21.484375	-51.296589
22.460938	-50.743664
23.437500	-53.150597
24.414062	-53.344696
25.390625	-52.114449
26.367188	-52.243370
27.343750	-50.957893
28.320312	-52.006874
29.296875	-52.542831
30.273438	-51.329067
31.250000	-51.935246
32.226562	-53.313248
33.203125	-51.348560
34.179688	-53.130535
35.156250	-52.660130
36.132812	-52.291405
37.109375	-51.525524
38.085938	-52.349644
39.062500	-51.437511
40.039062	-51.835018
41.015625	-51.530144
41.992188	-53.049824
42.968750	-52.194359
43.945312	-52.877602
44.921875	-52.544296
45.898438	-51.459476
46.875000	-51.779137
47.851562	-52.554493
48.828125	-51.252155
49.804688	-52.123005
50.781250	-51.075951
51.757812	-52.279102
52.734375	-53.320339
53.710938	-52.324871
54.687500	-51.927219
55.664062	-51.393524
56.640625	-51.512730
57.617188	-50.353680
58.593750	-52.431664
59.570312	-52.229267
60.546875	-52.141281
61.523438	-51.749874
62.500000	-52.579403
63.476562	-51.434303
64.453125	-52.137802
65.429688	-50.610699
66.406250	-51.420254
67.382812	-51.815102
68.359375	-51.019478
69.335938	-51.984299
70.312500	-53.013226
71.289062	-51.569153
72.265625	-51.292530
73.242188	-51.292152
74.218750	-51.372845
75.195312	-52.197296
76.171875	-52.006203
77.148438	-51.520351
78.125000	-51.797176
79.101562	-51.317966
80.078125	-51.359879
81.054688	-50.715805
82.031250	-51.217491
83.007812	-51.335003
83.984375	-51.797333
84.960938	-52.533127
85.937500	-52.347412
86.914062	-53.154419
87.890625	-51.895218
88.867188	-52.001217
89.843750	-51.709518
90.820312	-51.549381
91.796875	-51.817608
92.773438	-50.995468
93.750000	-51.760864
94.726562	-51.734455
95.703125	-52.103279
96.679688	-51.743526
97.656250	-52.674484
98.632812	-51.501896
99.609375	-51.383587
100.585938	-51.525558
101.562500	-52.227894
102.539062	-51.983185
103.515625	-53.015438
104.492188	-51.652622
105.468750	-51.746071
106.445312	-50.915440
107.421875	-51.786335
108.398438	-50.750549
109.375000	-51.752037
110.351562	-50.707664
111.328125	-50.160320
112.304688	-53.264927
113.281250	-53.208549
114.257812	-53.272659
115.234375	-52.645420
116.210938	-52.220547
117.187500	-52.316921
118.164062	-52.340111
119.140625	-52.122047
120.117188	-52.248852
121.093750	-51.224205
122.070312	-52.062157
123.046875	-52.803524
124.023438	-52.452801
125.000000	-51.990929
125.976562	-52.218643
126.953125	-51.879185
127.929688	-51.301617
128.906250	-50.723915
129.882812	-52.393490
130.859375	-52.984676
131.835938	-52.035816
132.812500	-51.229832
133.789062	-52.472916
134.765625	-50.947350
135.742188	-51.356049
136.718750	-52.300243
137.695312	-51.162136
138.671875	-50.794521
139.648438	-52.131783
140.625000	-52.625813
141.601562	-51.335327
142.578125	-52.128536
143.554688	-52.989182
144.531250	-51.284210
145.507812	-52.119888
146.484375	-52.931896
147.460938	-52.363873
148.437500	-51.158096
149.414062	-51.283943
150.390625	-51.997108
151.367188	-51.467743
152.343750	-51.033237
153.320312	-51.236908
154.296875	-52.126774
155.273438	-52.167316
156.250000	-52.029388
157.226562	-51.160851
158.203125	-51.545410
159.179688	-51.730026
160.156250	-52.029396
161.132812	-50.954891
162.109375	-51.811928
163.085938	-51.093472
164.062500	-51.149334
165.039062	-51.176956
166.015625	-51.349251
166.992188	-52.651573
167.968750	-51.847755
168.945312	-51.632908
169.921875	-51.702145
170.898438	-51.487846
171.875000	-51.520515
172.851562	-51.752605
173.828125	-51.739376
174.804688	-51.366898
175.781250	-52.181221
176.757812	-50.909634
177.734375	-51.590900
178.710938	-52.162380
179.687500	-51.603725
180.664062	-52.877796
181.640625	-51.607590
182.617188	-51.421116
183.593750	-52.525372
184.570312	-51.611221
185.546875	-54.459045
186.523438	-52.565945
187.500000	-51.594627
188.476562	-52.096756
189.453125	-50.762287
190.429688	-52.386253
191.406250	-51.650810
192.382812	-52.237144
193.359375	-52.276955
194.335938	-50.584526
195.312500	-50.961338
196.289062	-52.399231
197.265625	-52.086929
198.242188	-51.496780
199.218750	-50.745949
200.195312	-51.354687
201.171875	-50.413239
202.148438	-51.954815
203.125000	-52.572544
204.101562	-52.756729
205.078125	-51.938725
206.054688	-51.218475
207.031250	-51.253815
208.007812	-50.657963
208.984375	-51.689274
209.960938	-52.040268
210.937500	-51.720558
211.914062	-51.845284
212.890625	-50.917023
213.867188	-52.857353
214.843750	-51.938641
215.820312	-51.713997
216.796875	-51.968227
217.773438	-51.219177
218.750000	-52.640633
219.726562	-51.546146
220.703125	-50.676815
221.679688	-51.993244
222.656250	-51.121590
223.632812	-50.662701
224.609375	-52.047997
225.585938	-50.890129
226.562500	-51.849552
227.539062	-52.117031
228.515625	-52.058811
229.492188	-52.267281
230.468750	-50.623363
231.445312	-51.577663
232.421875	-51.498486
233.398438	-50.266308
234.375000	-50.585213
235.351562	-51.527966
236.328125	-52.283440
237.304688	-51.746586
238.281250	-50.728188
239.257812	-51.773144
240.234375	-51.117245
241.210938	-52.081257
242.187500	-51.302658
243.164062	-53.741398
244.140625	-52.909672
245.117188	-51.423973
246.093750	-52.506737
247.070312	-53.323727
248.046875	-51.301933
249.023438	-51.971645
250.000000	-50.769566
250.976562	-50.715656
251.953125	-52.283272
252.929688	-51.735275
253.906250	-50.774948
254.882812	-52.392471
255.859375	-51.346413
256.835938	-52.236668
257.812500	-51.479584
258.789062	-52.257214
259.765625	-52.669979
260.742188	-51.317745
261.718750	-50.915718
262.695312	-50.210793
263.671875	-51.979633
264.648438	-52.118267
265.625000	-51.142750
266.601562	-51.921471
267.578125	-51.915188
268.554688	-51.725842
269.531250	-52.332336
270.507812	-51.082539
271.484375	-51.433464
272.460938	-52.089199
273.437500	-51.865749
274.414062	-51.459366
275.390625	-52.329304
276.367188	-52.834816
277.343750	-51.318729
278.320312	-51.484730
279.296875	-51.558773
280.273438	-52.457409
281.250000	-51.945282
282.226562	-51.703342
283.203125	-51.326324
284.179688	-51.679985
285.156250	-52.525143
286.132812	-50.920609
287.109375	-51.319637
288.085938	-51.712212
289.062500	-49.621307
290.039062	-49.940487
291.015625	-51.697201
291.992188	-50.838741
292.968750	-52.170414
293.945312	-51.357880
294.921875	-51.138844
295.898438	-52.103504
296.875000	-50.805237
297.851562	-51.569275
298.828125	-51.936920
299.804688	-50.381424
300.781250	-51.305923
301.757812	-51.336029
302.734375	-51.499363
303.710938	-51.349957
304.687500	-52.090977
305.664062	-50.593929
306.640625	-50.034405
307.617188	-50.992096
308.593750	-51.575409
309.570312	-52.240185
310.546875	-50.727650
311.523438	-51.955048
312.500000	-52.291740
313.476562	-51.757233
314.453125	-51.270691
315.429688	-51.757385
316.406250	-51.900425
317.382812	-52.890266
318.359375	-51.614052
319.335938	-51.279392
320.312500	-51.164234
321.289062	-51.021534
322.265625	-51.981483
323.242188	-51.851490
324.218750	-52.591373
325.195312	-50.899380
326.171875	-52.095127
327.148438	-51.725471
328.125000	-51.449917
329.101562	-51.292065
330.078125	-51.086639
331.054688	-50.840054
332.031250	-51.024887
333.007812	-51.337669
333.984375	-52.452663
334.960938	-50.810154
335.937500	-51.169250
336.914062	-51.607658
337.890625	-52.840126
338.867188	-53.057362
339.843750	-52.681488
340.820312	-51.170063
341.796875	-50.843071
342.773438	-52.157280
343.750000	-51.846905
344.726562	-52.471046
345.703125	-52.160225
346.679688	-52.145882
347.656250	-51.581211
348.632812	-51.133553
349.609375	-51.168667
350.585938	-51.455654
351.562500	-51.439701
352.539062	-51.823090
353.515625	-52.303196
354.492188	-51.409557
355.468750	-51.618771
356.445312	-50.825104
357.421875	-51.699173
358.398438	-51.236710
359.375000	-51.002659
360.351562	-52.199478
361.328125	-52.197105
362.304688	-51.800892
363.281250	-53.853088
364.257812	-52.159534
365.234375	-51.987553
366.210938	-51.537426
367.187500	-51.257248
368.164062	-51.088154
369.140625	-50.987362
370.117188	-51.456520
371.093750	-52.337765
372.070312	-51.115402
373.046875	-50.546875
374.023438	-51.299992
375.000000	-52.015022
375.976562	-51.876816
376.953125	-52.375389
377.929688	-52.261120
378.906250	-51.708858
379.882812	-52.169853
380.859375	-51.392956
381.835938	-50.863152
382.812500	-52.114742
383.789062	-51.186432
384.765625	-52.018642
385.742188	-52.149971
386.718750	-51.385178
387.695312	-50.238708
388.671875	-51.954113
389.648438	-52.066975
390.625000	-50.207008
391.601562	-51.017033
392.578125	-52.456264
393.554688	-52.162563
394.531250	-51.583908
395.507812	-52.575741
396.484375	-51.688564
397.460938	-51.631744
398.437500	-51.223354
399.414062	-51.601456
400.390625	-50.942516
401.367188	-50.469540
402.343750	-51.783802
403.320312	-52.576542
404.296875	-52.067371
405.273438	-51.857239
406.250000	-52.447510
407.226562	-50.517578
408.203125	-51.417263
409.179688	-52.026989
410.156250	-51.851173
411.132812	-51.848499
412.109375	-51.479279
413.085938	-52.713638
414.062500	-51.571522
415.039062	-51.529579
416.015625	-52.300625
416.992188	-52.375656
417.968750	-53.586308
418.945312	-51.883110
419.921875	-52.098927
420.898438	-52.391197
421.875000	-50.972366
422.851562	-52.155563
423.828125	-52.552784
424.804688	-51.304443
425.781250	-50.950642
426.757812	-51.534546
427.734375	-52.445240
428.710938	-51.337399
429.687500	-51.329147
430.664062	-51.624374
431.640625	-52.159012
432.617188	-52.144180
433.593750	-51.860275
434.570312	-51.582798
435.546875	-50.710793
436.523438	-51.196922
437.500000	-51.395390
438.476562	-50.735538
439.453125	-52.022068
440.429688	-51.933151
441.406250	-51.726231
442.382812	-52.604084
443.359375	-49.813309
444.335938	-51.552837
445.312500	-51.251343
446.289062	-51.151123
447.265625	-51.921394
448.242188	-50.805428
449.218750	-50.904762
450.195312	-51.675617
451.171875	-52.813538
452.148438	-52.939041
453.125000	-51.905392
454.101562	-51.516918
455.078125	-53.138462
456.054688	-51.356335
457.031250	-51.246655
458.007812	-51.458164
458.984375	-52.037052
459.960938	-51.814659
460.937500	-51.752552
461.914062	-51.723389
462.890625	-52.172493
463.867188	-51.637527
464.843750	-51.457161
465.820312	-51.265564
466.796875	-51.825741
467.773438	-51.331936
468.750000	-52.455715
469.726562	-52.768726
470.703125	-51.481930
471.679688	-52.599018
472.656250	-52.541946
473.632812	-52.546764
474.609375	-52.392826
475.585938	-51.455006
476.562500	-52.258282
477.539062	-53.596386
478.515625	-52.740154
479.492188	-51.618095
480.468750	-50.984467
481.445312	-51.604603
482.421875	-52.249081
483.398438	-53.068985
484.375000	-54.522221
485.351562	-51.510426
486.328125	-52.357285
487.304688	-50.695923
488.281250	-51.830673
489.257812	-51.724854
490.234375	-52.540112
491.210938	-51.983002
492.187500	-51.091846
493.164062	-52.217945
494.140625	-52.582817
495.117188	-52.280293
496.093750	-52.202942
497.070312	-51.677517
498.046875	-51.176086
499.023438	-51.023190
500.000000	-51.062855
500.976562	-50.856026
501.953125	-52.089363
502.929688	-51.861488
503.906250	-50.862720
504.882812	-51.875664
505.859375	-52.858929
506.835938	-52.013985
507.812500	-51.525188
508.789062	-50.574474
509.765625	-51.542488
510.742188	-51.858753
511.718750	-52.000729
512.695312	-52.929310
513.671875	-51.471569
514.648438	-51.798557
515.625000	-52.056847
516.601562	-51.476437
517.578125	-51.375015
518.554688	-51.179344
519.531250	-53.179077
520.507812	-51.430283
521.484375	-52.020962
522.460938	-51.958569
523.437500	-51.367695
524.414062	-51.998783
525.390625	-52.946560
526.367188	-50.463963
527.343750	-51.896126
528.320312	-52.922050
529.296875	-50.592796
530.273438	-51.580276
531.250000	-51.661144
532.226562	-51.854103
533.203125	-52.582817
534.179688	-50.781654
535.156250	-51.348724
536.132812	-52.106853
537.109375	-51.769253
538.085938	-50.868599
539.062500	-51.182484
540.039062	-51.416012
541.015625	-51.684242
541.992188	-52.600525
542.968750	-52.492752
543.945312	-52.261326
544.921875	-52.563793
545.898438	-51.493134
546.875000	-52.115894
547.851562	-51.756939
548.828125	-52.232578
549.804688	-51.703823
550.781250	-52.029537
551.757812	-51.423878
552.734375	-52.016167
553.710938	-51.167179
554.687500	-52.890247
555.664062	-51.728180
556.640625	-51.450272
557.617188	-51.583614
558.593750	-51.268154
559.570312	-51.605995
560.546875	-51.922993
561.523438	-52.327938
562.500000	-52.304516
563.476562	-52.069592
564.453125	-52.638573
565.429688	-52.182407
566.406250	-52.331795
567.382812	-51.188580
568.359375	-52.716934
569.335938	-51.671021
570.312500	-50.775581
571.289062	-52.268726
572.265625	-52.121288
573.242188	-52.051109
574.218750	-51.309174
575.195312	-51.942890
576.171875	-51.935017
577.148438	-50.760246
578.125000	-51.615864
579.101562	-52.650421
580.078125	-52.112816
581.054688	-53.457527
582.031250	-51.079468
583.007812	-51.126938
583.984375	-50.461941
584.960938	-52.091480
585.937500	-51.255184
586.914062	-52.284801
587.890625	-52.153957
588.867188	-52.188046
589.843750	-50.845768
590.820312	-52.034191
591.796875	-52.596661
592.773438	-52.161743
593.750000	-51.672005
594.726562	-51.641190
595.703125	-51.628677
596.679688	-52.314499
597.656250	-52.341335
598.632812	-52.324059
599.609375	-51.312946
600.585938	-51.731548
601.562500	-51.086292
602.539062	-51.291870
603.515625	-52.188889
604.492188	-52.875179
605.468750	-51.198952
606.445312	-51.023651
607.421875	-50.729710
608.398438	-51.516872
609.375000	-52.408421
610.351562	-52.545807
611.328125	-52.179001
612.304688	-50.755230
613.281250	-50.994076
614.257812	-52.767982
615.234375	-52.559715
616.210938	-50.507294
617.187500	-50.299191
618.164062	-51.950546
619.140625	-51.661247
620.117188	-52.583321
621.093750	-51.274612
622.070312	-52.499882
623.046875	-53.380260
624.023438	-51.675247
625.000000	-51.618454
625.976562	-51.616470
626.953125	-51.974323
627.929688	-53.259693
628.906250	-52.801170
629.882812	-51.150810
630.859375	-50.933132
631.835938	-51.613792
632.812500	-51.899643
633.789062	-52.249825
634.765625	-52.145653
635.742188	-50.883972
636.718750	-50.774620
637.695312	-51.711102
638.671875	-52.374008
639.648438	-50.977383
640.625000	-50.531624
641.601562	-51.354980
642.578125	-52.644306
643.554688	-51.734337
644.531250	-52.169006
645.507812	-52.112919
646.484375	-50.795979
647.460938	-52.844437
648.437500	-52.800594
649.414062	-51.087460
650.390625	-51.765514
651.367188	-49.958065
652.343750	-51.189274
653.320312	-53.222683
654.296875	-52.469242
655.273438	-51.660133
656.250000	-51.693420
657.226562	-52.071495
658.203125	-52.301094
659.179688	-52.048222
660.156250	-50.976681
661.132812	-51.257351
662.109375	-52.169823
663.085938	-52.827534
664.062500	-51.250957
665.039062	-52.223045
666.015625	-51.424557
666.992188	-51.579510
667.968750	-51.054691
668.945312	-52.403053
669.921875	-52.217495
670.898438	-51.126308
671.875000	-51.812927
672.851562	-50.860775
673.828125	-52.680389
674.804688	-52.547112
675.781250	-51.528114
676.757812	-52.272007
677.734375	-52.844379
678.710938	-52.741203
679.687500	-52.096165
680.664062	-51.940628
681.640625	-51.786327
682.617188	-50.807598
683.593750	-51.909431
684.570312	-51.228745
685.546875	-52.622513
686.523438	-52.431705
687.500000	-52.692902
688.476562	-51.326530
689.453125	-51.541412
690.429688	-52.473301
691.406250	-50.941544
692.382812	-51.555202
693.359375	-50.656071
694.335938	-51.089397
695.312500	-51.315464
696.289062	-50.807060
697.265625	-51.679989
698.242188	-50.849236
699.218750	-51.796951
700.195312	-51.493790
701.171875	-51.264004
702.148438	-52.854794
703.125000	-51.546375
704.101562	-51.658630
705.078125	-52.899696
706.054688	-51.604912
707.031250	-52.545616
708.007812	-51.379112
708.984375	-51.945366
709.960938	-52.194218
710.937500	-52.007618
711.914062	-51.005054
712.890625	-51.417313
713.867188	-53.192604
714.843750	-53.113533
715.820312	-52.770725
716.796875	-53.034077
717.773438	-52.566742
718.750000	-51.839176
719.726562	-51.971104
720.703125	-52.487221
721.679688	-51.714291
722.656250	-51.691990
723.632812	-52.497726
724.609375	-52.192146
725.585938	-50.675022
726.562500	-51.195370
727.539062	-50.874126
728.515625	-51.457066
729.492188	-52.806412
730.468750	-52.038628
731.445312	-51.194672
732.421875	-52.069740
733.398438	-51.561211
734.375000	-51.479248
735.351562	-51.003834
736.328125	-52.562061
737.304688	-52.749260
738.281250	-52.666222
739.257812	-52.029545
740.234375	-51.405766
741.210938	-52.118752
742.187500	-51.608353
743.164062	-52.185329
744.140625	-52.745663
745.117188	-50.762302
746.093750	-50.777958
747.070312	-51.352123
748.046875	-52.085464
749.023438	-52.289894
750.000000	-51.581795
750.976562	-51.623455
751.953125	-52.720268
752.929688	-52.451927
753.906250	-51.862354
754.882812	-52.357018
755.859375	-51.242004
756.835938	-51.423561
757.812500	-51.885357
758.789062	-52.086685
759.765625	-50.871635
760.742188	-50.608765
761.718750	-49.996094
762.695312	-50.859203
763.671875	-52.580311
764.648438	-51.454716
765.625000	-50.870678
766.601562	-50.174927
767.578125	-50.454269
768.554688	-51.658672
769.531250	-51.238148
770.507812	-52.302471
771.484375	-51.816910
772.460938	-51.151711
773.437500	-51.421806
774.414062	-51.803402
775.390625	-50.900185
776.367188	-51.109589
777.343750	-51.600101
778.320312	-52.671398
779.296875	-51.867130
780.273438	-52.214333
781.250000	-51.941772
782.226562	-51.334690
783.203125	-51.030464
784.179688	-50.849819
785.156250	-51.627041
786.132812	-52.859512
787.109375	-51.921516
788.085938	-52.029434
789.062500	-51.897114
790.039062	-51.467167
791.015625	-51.717255
791.992188	-52.064724
792.968750	-53.239433
793.945312	-51.402641
794.921875	-51.563488
795.898438	-52.008705
796.875000	-50.846313
797.851562	-51.898762
798.828125	-50.875656
799.804688	-52.117668
800.781250	-52.794617
801.757812	-50.337090
802.734375	-51.155319
803.710938	-50.366409
804.687500	-52.245037
805.664062	-50.414558
806.640625	-50.731941
807.617188	-51.644791
808.593750	-52.668518
809.570312	-51.556404
810.546875	-51.524708
811.523438	-52.107594
812.500000	-50.771172
813.476562	-52.434258
814.453125	-51.121712
815.429688	-51.696674
816.406250	-52.069855
817.382812	-51.779434
818.359375	-52.218033
819.335938	-52.536934
820.312500	-52.158070
821.289062	-52.105068
822.265625	-52.370090
823.242188	-51.935539
824.218750	-51.763527
825.195312	-51.233635
826.171875	-52.400642
827.148438	-51.054779
828.125000	-50.664387
829.101562	-52.088657
830.078125	-50.895851
831.054688	-51.413826
832.031250	-52.042881
833.007812	-50.913425
833.984375	-53.150848
834.960938	-52.519917
835.937500	-51.271721
836.914062	-52.628330
837.890625	-51.451263
838.867188	-51.961494
839.843750	-51.634586
840.820312	-51.764332
841.796875	-53.524406
842.773438	-52.192066
843.750000	-51.692081
844.726562	-53.749557
845.703125	-51.425190
846.679688	-51.580109
847.656250	-51.673840
848.632812	-51.960335
849.609375	-51.032108
850.585938	-50.883972
851.562500	-53.519192
852.539062	-52.068897
853.515625	-51.472698
854.492188	-51.095486
855.468750	-51.990559
856.445312	-52.671631
857.421875	-51.311115
858.398438	-50.693760
859.375000	-51.621567
860.351562	-52.669800
861.328125	-50.794598
862.304688	-52.614281
863.281250	-51.734966
864.257812	-50.633667
865.234375	-50.822712
866.210938	-51.557194
867.187500	-50.316315
868.164062	-51.708099
869.140625	-51.945293
870.117188	-52.027802
871.093750	-51.555752
872.070312	-51.823578
873.046875	-51.608887
874.023438	-51.016987
875.000000	-50.446365
875.976562	-51.900360
876.953125	-51.535076
877.929688	-51.708351
878.906250	-53.594090
879.882812	-51.353127
880.859375	-50.873112
881.835938	-51.952808
882.812500	-50.768059
883.789062	-51.818157
884.765625	-51.665257
885.742188	-52.483601
886.718750	-51.641857
887.695312	-53.525455
888.671875	-52.657566
889.648438	-51.424164
890.625000	-51.291023
891.601562	-52.111965
892.578125	-52.665508
893.554688	-52.896870
894.531250	-50.716545
895.507812	-51.361092
896.484375	-53.246128
897.460938	-50.961433
898.437500	-51.762028
899.414062	-52.223320
900.390625	-51.899670
901.367188	-51.281094
902.343750	-52.105652
903.320312	-51.184258
904.296875	-52.141026
905.273438	-51.497696
906.250000	-51.061829
907.226562	-52.533947
908.203125	-50.817898
909.179688	-51.601933
910.156250	-52.469402
911.132812	-52.599316
912.109375	-51.441597
913.085938	-51.984222
914.062500	-52.027950
915.039062	-51.705589
916.015625	-53.013866
916.992188	-52.994347
917.968750	-51.059422
918.945312	-51.005665
919.921875	-51.117558
920.898438	-52.510933
921.875000	-52.385620
922.851562	-50.986301
923.828125	-51.178112
924.804688	-52.373188
925.781250	-52.738426
926.757812	-53.018734
927.734375	-51.278248
928.710938	-51.858372
929.687500	-49.922981
930.664062	-52.666878
931.640625	-51.867729
932.617188	-51.642612
933.593750	-51.915997
934.570312	-52.723888
935.546875	-54.434757
936.523438	-51.221481
937.500000	-50.920841
938.476562	-52.635696
939.453125	-51.531540
940.429688	-52.215462
941.406250	-51.516056
942.382812	-51.496769
943.359375	-51.845505
944.335938	-51.299961
945.312500	-51.609890
946.289062	-51.768894
947.265625	-51.454266
948.242188	-52.283867
949.218750	-52.373875
950.195312	-52.058788
951.171875	-50.715668
952.148438	-51.596363
953.125000	-52.470070
954.101562	-51.722675
955.078125	-51.241222
956.054688	-51.920528
957.031250	-50.752087
958.007812	-52.765060
958.984375	-52.024609
959.960938	-52.190777
960.937500	-51.467350
961.914062	-50.339684
962.890625	-50.575111
963.867188	-51.627518
964.843750	-52.469761
965.820312	-50.437263
966.796875	-52.639114
967.773438	-52.152508
968.750000	-50.889500
969.726562	-52.308388
970.703125	-51.648514
971.679688	-51.972221
972.656250	-51.561562
973.632812	-50.682869
974.609375	-52.051479
975.585938	-52.508858
976.562500	-52.339149
977.539062	-51.813248
978.515625	-52.354801
979.492188	-51.477200
980.468750	-51.761875
981.445312	-50.044636
982.421875	-51.398415
983.398438	-51.859779
984.375000	-52.546566
985.351562	-52.105816
986.328125	-50.915138
987.304688	-50.760170
988.281250	-50.502304
989.257812	-50.708313
990.234375	-50.616444
991.210938	-51.774429
992.187500	-51.919670
993.164062	-51.422382
994.140625	-51.482254
995.117188	-51.685810
996.093750	-51.674328
997.070312	-52.029327
998.046875	-52.211002
999.023438	-53.196430
1000.000000	-52.926498
1000.976562	-51.365402
1001.953125	-52.635376
1002.929688	-51.426617
1003.906250	-51.309635
1004.882812	-50.662998
1005.859375	-52.078392
1006.835938	-51.674393
1007.812500	-52.609230
1008.789062	-52.709782
1009.765625	-51.049416
1010.742188	-52.449814
1011.718750	-52.773632
1012.695312	-51.423458
1013.671875	-53.059910
1014.648438	-50.892700
1015.625000	-50.638504
1016.601562	-51.821411
1017.578125	-52.375191
1018.554688	-53.220753
1019.531250	-53.195030
1020.507812	-51.106365
1021.484375	-51.650902
1022.460938	-51.524940
1023.437500	-51.408817
1024.414062	-53.162926
1025.390625	-51.602119
1026.367188	-52.311428
1027.343750	-51.279648
1028.320312	-51.462837
1029.296875	-51.823734
1030.273438	-51.613552
1031.250000	-51.142632
1032.226562	-50.911449
1033.203125	-52.172615
1034.179688	-51.589458
1035.156250	-52.286896
1036.132812	-51.418468
1037.109375	-51.399094
1038.085938	-51.005188
1039.062500	-53.159969
1040.039062	-51.578350
1041.015625	-51.465157
1041.992188	-51.270447
1042.968750	-50.927666
1043.945312	-52.560310
1044.921875	-51.653610
1045.898438	-51.318493
1046.875000	-51.475189
1047.851562	-51.939098
1048.828125	-52.898731
1049.804688	-51.830227
1050.781250	-51.663635
1051.757812	-51.352627
1052.734375	-51.118805
1053.710938	-51.735073
1054.687500	-50.585297
1055.664062	-50.633469
1056.640625	-52.391987
1057.617188	-51.177807
1058.593750	-52.077259
1059.570312	-51.990967
1060.546875	-51.188370
1061.523438	-51.153988
1062.500000	-51.041210
1063.476562	-51.688950
1064.453125	-51.800938
1065.429688	-51.144638
1066.406250	-51.452030
1067.382812	-52.439697
1068.359375	-51.567547
1069.335938	-52.631630
1070.312500	-51.930328
1071.289062	-51.599316
1072.265625	-52.058979
1073.242188	-50.577621
1074.218750	-51.612991
1075.195312	-52.489483
1076.171875	-52.463413
1077.148438	-51.869835
1078.125000	-50.685978
1079.101562	-52.088181
1080.078125	-52.968979
1081.054688	-50.993176
1082.031250	-50.403164
1083.007812	-51.355221
1083.984375	-50.519901
1084.960938	-52.380764
1085.937500	-51.511818
1086.914062	-51.615074
1087.890625	-52.754890
1088.867188	-50.991070
1089.843750	-51.946808
1090.820312	-51.572601
1091.796875	-51.093937
1092.773438	-52.368134
1093.750000	-51.690392
1094.726562	-53.111839
1095.703125	-51.834145
1096.679688	-51.551430
1097.656250	-52.574291
1098.632812	-53.053619
1099.609375	-51.627445
1100.585938	-50.742081
1101.562500	-52.099308
1102.539062	-50.326527
1103.515625	-52.274651
1104.492188	-52.537834
1105.468750	-52.247543
1106.445312	-50.588039
1107.421875	-51.016312
1108.398438	-52.898705
1109.375000	-52.716080
1110.351562	-52.314892
1111.328125	-51.433727
1112.304688	-51.743999
1113.281250	-51.743557
1114.257812	-51.442951
1115.234375	-52.068329
1116.210938	-52.180115
1117.187500	-52.494217
1118.164062	-51.357647
1119.140625	-51.327980
1120.117188	-50.955715
1121.093750	-52.115173
1122.070312	-51.589222
1123.046875	-50.707920
1124.023438	-50.538780
1125.000000	-51.554066
1125.976562	-51.035412
1126.953125	-52.077095
1127.929688	-51.619759
1128.906250	-51.831070
1129.882812	-51.944088
1130.859375	-51.175354
1131.835938	-51.736889
1132.812500	-52.104389
1133.789062	-52.127270
1134.765625	-51.775215
1135.742188	-51.934505
1136.718750	-51.407799
1137.695312	-51.622894
1138.671875	-51.917210
1139.648438	-52.674774
1140.625000	-52.118374
1141.601562	-51.700462
1142.578125	-52.827530
1143.554688	-51.912594
1144.531250	-52.393562
1145.507812	-50.092552
1146.484375	-50.253548
1147.460938	-51.047077
1148.437500	-50.615372
1149.414062	-52.670788
1150.390625	-52.892891
1151.367188	-51.945415
1152.343750	-52.547222
1153.320312	-51.506248
1154.296875	-51.488647
1155.273438	-50.837624
1156.250000	-51.748894
1157.226562	-52.490414
1158.203125	-53.478325
1159.179688	-52.366093
1160.156250	-51.518372
1161.132812	-51.965763
1162.109375	-51.625301
1163.085938	-52.647274
1164.062500	-51.270977
1165.039062	-51.865200
1166.015625	-52.082016
1166.992188	-52.751041
1167.968750	-50.736183
1168.945312	-51.829609
1169.921875	-50.543571
1170.898438	-51.364098
1171.875000	-50.677040
1172.851562	-51.360004
1173.828125	-52.451164
1174.804688	-51.760849
1175.781250	-51.724319
1176.757812	-52.248962
1177.734375	-51.621517
1178.710938	-53.074677
1179.687500	-51.209137
1180.664062	-52.349895
1181.640625	-51.450645
1182.617188	-51.968433
1183.593750	-53.080490
1184.570312	-52.315105
1185.546875	-51.587212
1186.523438	-52.427338
1187.500000	-51.540794
1188.476562	-52.071587
1189.453125	-51.131947
1190.429688	-50.058773
1191.406250	-51.242817
1192.382812	-53.693878
1193.359375	-52.582832
1194.335938	-52.706142
1195.312500	-53.115620
1196.289062	-52.047691
1197.265625	-52.097370
1198.242188	-51.174885
1199.218750	-52.150017
1200.195312	-51.806744
1201.171875	-52.644070
1202.148438	-52.082424
1203.125000	-50.468376
1204.101562	-52.515842
1205.078125	-51.640270
1206.054688	-51.924202
1207.031250	-51.852821
1208.007812	-51.403435
1208.984375	-50.506935
1209.960938	-51.787262
1210.937500	-52.200710
1211.914062	-51.349850
1212.890625	-50.189411
1213.867188	-51.582275
1214.843750	-51.819279
1215.820312	-52.751518
1216.796875	-54.130692
1217.773438	-52.517139
1218.750000	-49.705975
1219.726562	-52.224510
1220.703125	-51.370090
1221.679688	-52.931660
1222.656250	-51.048607
1223.632812	-51.599049
1224.609375	-52.730938
1225.585938	-52.184357
1226.562500	-51.165291
1227.539062	-52.215313
1228.515625	-51.692329
1229.492188	-51.007088
1230.468750	-53.438862
1231.445312	-52.292686
1232.421875	-51.472309
1233.398438	-53.135380
1234.375000	-51.389660
1235.351562	-52.140175
1236.328125	-52.312099
1237.304688	-52.081177
1238.281250	-50.826347
1239.257812	-50.623508
1240.234375	-51.673557
1241.210938	-51.548874
1242.187500	-51.439777
1243.164062	-50.741825
1244.140625	-52.950176
1245.117188	-52.514244
1246.093750	-52.195580
1247.070312	-51.367714
1248.046875	-50.490414
1249.023438	-50.563240
1250.000000	-52.324417
1250.976562	-51.996502
1251.953125	-52.094482
1252.929688	-51.939331
1253.906250	-52.200672
1254.882812	-51.354031
1255.859375	-51.480755
1256.835938	-52.885479
1257.812500	-51.792179
1258.789062	-51.379513
1259.765625	-52.763233
1260.742188	-52.433716
1261.718750	-52.726604
1262.695312	-52.203674
1263.671875	-52.152027
1264.648438	-52.634232
1265.625000	-51.721577
1266.601562	-51.350288
1267.578125	-51.139397
1268.554688	-51.157806
1269.531250	-51.021530
1270.507812	-52.512791
1271.484375	-52.879219
1272.460938	-51.748985
1273.437500	-50.484478
1274.414062	-50.927891
1275.390625	-51.534267
1276.367188	-51.202477
1277.343750	-51.315079
1278.320312	-51.652740
1279.296875	-51.687069
1280.273438	-52.361252
1281.250000	-52.144623
1282.226562	-51.958515
1283.203125	-51.556973
1284.179688	-52.659134
1285.156250	-52.996380
1286.132812	-52.705956
1287.109375	-53.370121
1288.085938	-52.403641
1289.062500	-52.555744
1290.039062	-51.371799
1291.015625	-52.299656
1291.992188	-51.134388
1292.968750	-50.661053
1293.945312	-50.379372
1294.921875	-50.852360
1295.898438	-50.942726
1296.875000	-51.847672
1297.851562	-51.833992
1298.828125	-52.702267
1299.804688	-51.688400
1300.781250	-51.828716
1301.757812	-51.918121
1302.734375	-52.889599
1303.710938	-52.783825
1304.687500	-50.982159
1305.664062	-51.140347
1306.640625	-52.578415
1307.617188	-52.975723
1308.593750	-51.757618
1309.570312	-51.859837
1310.546875	-51.321400
1311.523438	-51.343628
1312.500000	-50.021252
1313.476562	-50.884487
1314.453125	-51.426899
1315.429688	-51.735306
1316.406250	-51.476360
1317.382812	-51.927662
1318.359375	-51.535255
1319.335938	-51.425198
1320.312500	-51.751987
1321.289062	-52.524689
1322.265625	-51.563522
1323.242188	-52.818253
1324.218750	-50.975708
1325.195312	-54.040581
1326.171875	-51.937424
1327.148438	-50.728401
1328.125000	-51.272610
1329.101562	-52.265652
1330.078125	-51.031391
1331.054688	-52.312210
1332.031250	-53.460964
1333.007812	-52.022556
1333.984375	-50.144547
1334.960938	-52.071671
1335.937500	-50.549511
1336.914062	-52.070824
1337.890625	-51.667385
1338.867188	-50.879932
1339.843750	-53.563396
1340.820312	-50.515137
1341.796875	-51.626186
1342.773438	-51.700077
1343.750000	-52.234032
1344.726562	-52.408016
1345.703125	-51.432968
1346.679688	-51.351391
1347.656250	-52.004936
1348.632812	-52.059795
1349.609375	-51.963295
1350.585938	-52.045849
1351.562500	-51.195160
1352.539062	-52.053680
1353.515625	-51.531914
1354.492188	-52.417843
1355.468750	-53.578781
1356.445312	-51.754715
1357.421875	-51.362606
1358.398438	-52.379684
1359.375000	-51.261738
1360.351562	-53.797695
1361.328125	-53.112972
1362.304688	-51.580074
1363.281250	-51.371113
1364.257812	-52.220135
1365.234375	-51.605537
1366.210938	-52.002300
1367.187500	-51.739006
1368.164062	-50.915230
1369.140625	-51.577934
1370.117188	-51.049416
1371.093750	-51.634422
1372.070312	-51.051838
1373.046875	-50.151340
1374.023438	-50.785992
1375.000000	-51.233387
1375.976562	-53.107269
1376.953125	-51.365665
1377.929688	-50.816315
1378.906250	-52.166904
1379.882812	-50.360962
1380.859375	-51.047737
1381.835938	-50.248363
1382.812500	-50.730999
1383.789062	-51.912537
1384.765625	-52.042614
1385.742188	-51.377903
1386.718750	-51.338978
1387.695312	-51.726391
1388.671875	-51.175972
1389.648438	-52.439137
1390.625000	-51.552845
1391.601562	-52.382717
1392.578125	-51.967770
1393.554688	-51.333229
1394.531250	-51.330948
1395.507812	-52.445549
1396.484375	-51.108997
1397.460938	-52.803673
1398.437500	-52.298859
1399.414062	-51.079567
1400.390625	-50.565624
1401.367188	-51.471519
1402.343750	-51.835545
1403.320312	-51.787514
1404.296875	-51.777195
1405.273438	-51.727921
1406.250000	-52.233040
1407.226562	-52.329735
1408.203125	-51.033749
1409.179688	-52.002800
1410.156250	-51.207893
1411.132812	-51.211544
1412.109375	-51.402836
1413.085938	-51.978394
1414.062500	-52.309971
1415.039062	-53.208378
1416.015625	-51.956718
1416.992188	-53.019989
1417.968750	-50.859749
1418.945312	-51.797482
1419.921875	-51.995327
1420.898438	-51.705730
1421.875000	-51.924374
1422.851562	-51.654259
1423.828125	-51.319069
1424.804688	-51.651581
1425.781250	-52.350945
1426.757812	-51.959915
1427.734375	-50.877731
1428.710938	-51.642380
1429.687500	-51.696884
1430.664062	-51.165318
1431.640625	-51.398380
1432.617188	-52.615479
1433.593750	-51.824127
1434.570312	-52.137680
1435.546875	-52.686401
1436.523438	-52.366486
1437.500000	-52.128166
1438.476562	-51.415817
1439.453125	-51.235970
1440.429688	-51.025303
1441.406250	-51.990112
1442.382812	-51.444874
1443.359375	-52.894367
1444.335938	-50.744545
1445.312500	-52.246273
1446.289062	-51.666973
1447.265625	-53.650303
1448.242188	-53.484543
1449.218750	-52.232426
1450.195312	-51.605885
1451.171875	-51.840412
1452.148438	-51.393810
1453.125000	-51.435383
1454.101562	-52.964874
1455.078125	-51.513302
1456.054688	-50.668648
1457.031250	-52.182102
1458.007812	-51.317699
1458.984375	-52.460205
1459.960938	-53.523865
1460.937500	-51.508846
1461.914062	-51.480709
1462.890625	-52.124680
1463.867188	-51.342922
1464.843750	-52.355541
1465.820312	-52.951603
1466.796875	-51.312668
1467.773438	-52.057571
1468.750000	-51.227528
1469.726562	-51.327972
1470.703125	-50.630512
1471.679688	-51.731403
1472.656250	-52.013580
1473.632812	-51.203564
1474.609375	-53.007683
1475.585938	-53.591667
1476.562500	-51.681080
1477.539062	-50.840282
1478.515625	-50.253952
1479.492188	-51.449566
1480.468750	-50.071739
1481.445312	-51.514412
1482.421875	-51.464676
1483.398438	-51.840893
1484.375000	-50.365925
1485.351562	-50.993061
1486.328125	-52.010250
1487.304688	-52.060524
1488.281250	-51.421268
1489.257812	-50.858707
1490.234375	-51.446152
1491.210938	-52.243717
1492.187500	-51.468311
1493.164062	-51.617081
1494.140625	-50.865017
1495.117188	-52.193520
1496.093750	-51.626888
1497.070312	-52.492462
1498.046875	-52.135426
1499.023438	-53.453690
1500.000000	-52.037262
1500.976562	-52.784435
1501.953125	-52.898891
1502.929688	-50.447365
1503.906250	-51.467243
1504.882812	-52.059002
1505.859375	-51.049282
1506.835938	-52.073334
1507.812500	-53.241909
1508.789062	-51.784325
1509.765625	-52.581047
1510.742188	-50.742043
1511.718750	-50.565174
1512.695312	-52.154449
1513.671875	-52.266232
1514.648438	-52.203346
1515.625000	-51.711704
1516.601562	-52.663624
1517.578125	-51.720627
1518.554688	-51.002659
1519.531250	-51.251755
1520.507812	-50.050552
1521.484375	-49.916191
1522.460938	-51.091736
1523.437500	-51.111488
1524.414062	-51.319122
1525.390625	-52.267971
1526.367188	-51.505638
1527.343750	-52.613171
1528.320312	-52.224091
1529.296875	-52.673092
1530.273438	-51.542263
1531.250000	-52.194527
1532.226562	-52.223949
1533.203125	-51.405609
1534.179688	-49.713688
1535.156250	-52.563702
1536.132812	-52.447906
1537.109375	-51.763721
1538.085938	-52.581905
1539.062500	-51.872410
1540.039062	-52.158146
1541.015625	-51.765766
1541.992188	-53.252251
1542.968750	-52.368237
1543.945312	-51.539295
1544.921875	-52.909599
1545.898438	-51.437752
1546.875000	-51.734020
1547.851562	-50.833237
1548.828125	-52.613667
1549.804688	-52.256763
1550.781250	-52.996670
1551.757812	-52.959282
1552.734375	-51.391350
1553.710938	-52.050762
1554.687500	-52.510448
1555.664062	-51.245686
1556.640625	-51.079884
1557.617188	-52.335724
1558.593750	-52.034927
1559.570312	-51.298641
1560.546875	-50.861237
1561.523438	-51.765537
1562.500000	-50.943962
1563.476562	-52.587345
1564.453125	-50.708164
1565.429688	-51.815742
1566.406250	-51.125553
1567.382812	-51.339928
1568.359375	-53.343758
1569.335938	-52.372128
1570.312500	-52.491688
1571.289062	-51.485413
1572.265625	-51.764469
1573.242188	-51.509087
1574.218750	-51.236130
1575.195312	-51.163273
1576.171875	-52.085026
1577.148438	-53.475281
1578.125000	-50.659409
1579.101562	-52.549702
1580.078125	-52.842674
1581.054688	-52.474888
1582.031250	-52.083275
1583.007812	-50.829403
1583.984375	-50.936272
1584.960938	-51.183495
1585.937500	-50.598137
1586.914062	-52.005684
1587.890625	-51.346359
1588.867188	-50.291759
1589.843750	-52.548721
1590.820312	-51.883251
1591.796875	-51.367908
1592.773438	-52.178738
1593.750000	-51.035381
1594.726562	-50.224209
1595.703125	-51.960537
1596.679688	-51.765469
1597.656250	-51.761425
1598.632812	-50.201145
1599.609375	-50.400352
1600.585938	-51.670074
1601.562500	-51.338627
1602.539062	-52.426247
1603.515625	-52.290829
1604.492188	-50.694546
1605.468750	-52.420582
1606.445312	-51.908707
1607.421875	-52.005203
1608.398438	-51.745800
1609.375000	-51.423649
1610.351562	-51.819897
1611.328125	-52.639278
1612.304688	-50.887543
1613.281250	-51.168797
1614.257812	-50.214569
1615.234375	-53.608719
1616.210938	-51.232224
1617.187500	-51.558403
1618.164062	-51.469948
1619.140625	-51.436192
1620.117188	-50.543522
1621.093750	-52.107960
1622.070312	-51.737652
1623.046875	-51.262981
1624.023438	-50.308224
1625.000000	-51.936733
1625.976562	-52.794899
1626.953125	-51.144100
1627.929688	-51.859184
1628.906250	-50.494511
1629.882812	-52.982685
1630.859375	-52.660187
1631.835938	-52.205662
1632.812500	-51.078686
1633.789062	-52.091408
1634.765625	-51.212154
1635.742188	-50.963184
1636.718750	-52.018669
1637.695312	-51.672356
1638.671875	-51.789116
1639.648438	-52.135380
1640.625000	-51.123577
1641.601562	-51.846951
1642.578125	-51.658211
1643.554688	-50.857349
1644.531250	-51.171379
1645.507812	-52.570259
1646.484375	-51.241798
1647.460938	-51.465939
1648.437500	-51.839924
1649.414062	-51.519783
1650.390625	-51.355881
1651.367188	-51.192322
1652.343750	-51.679081
1653.320312	-51.152405
1654.296875	-51.537842
1655.273438	-51.786076
1656.250000	-51.343475
1657.226562	-50.865692
1658.203125	-51.511448
1659.179688	-51.355133
1660.156250	-51.540077
1661.132812	-51.493046
1662.109375	-50.818836
1663.085938	-50.042553
1664.062500	-52.112858
1665.039062	-51.201382
1666.015625	-51.859619
1666.992188	-52.323578
1667.968750	-51.376377
1668.945312	-50.974022
1669.921875	-50.730453
1670.898438	-51.067719
1671.875000	-50.667488
1672.851562	-50.966129
1673.828125	-52.816349
1674.804688	-51.135201
1675.781250	-51.009949
1676.757812	-52.155243
1677.734375	-52.017185
1678.710938	-51.360302
1679.687500	-51.137562
1680.664062	-52.180515
1681.640625	-52.552139
1682.617188	-50.232983
1683.593750	-53.072781
1684.570312	-52.456333
1685.546875	-50.027733
1686.523438	-52.049126
1687.500000	-51.799446
1688.476562	-52.248829
1689.453125	-50.139957
1690.429688	-51.392910
1691.406250	-51.556107
1692.382812	-51.442516
1693.359375	-51.375134
1694.335938	-51.380714
1695.312500	-51.798458
1696.289062	-52.889553
1697.265625	-51.711887
1698.242188	-52.749092
1699.218750	-52.004814
1700.195312	-51.524479
1701.171875	-52.420101
1702.148438	-51.754333
1703.125000	-52.483391
1704.101562	-51.602200
1705.078125	-51.367825
1706.054688	-51.377617
1707.031250	-50.735508
1708.007812	-51.393250
1708.984375	-50.904072
1709.960938	-51.773548
1710.937500	-49.709846
1711.914062	-52.738499
1712.890625	-51.521702
1713.867188	-51.524338
1714.843750	-52.494492
1715.820312	-51.208603
1716.796875	-50.757217
1717.773438	-51.016884
1718.750000	-51.893143
1719.726562	-50.796543
1720.703125	-50.828369
1721.679688	-52.381626
1722.656250	-51.399906
1723.632812	-51.114063
1724.609375	-52.343540
1725.585938	-51.579998
1726.562500	-51.565331
1727.539062	-51.449406
1728.515625	-51.529308
1729.492188	-52.446117
1730.468750	-51.346802
1731.445312	-51.559105
1732.421875	-50.637779
1733.398438	-52.368950
1734.375000	-51.893074
1735.351562	-51.213352
1736.328125	-52.675011
1737.304688	-51.906307
1738.281250	-52.943501
1739.257812	-51.773087
1740.234375	-51.974213
1741.210938	-51.528248
1742.187500	-51.335453
1743.164062	-52.175735
1744.140625	-52.458893
1745.117188	-51.949860
1746.093750	-51.907276
1747.070312	-50.730965
1748.046875	-51.981236
1749.023438	-51.056057
1750.000000	-50.814262
1750.976562	-51.519756
1751.953125	-51.662086
1752.929688	-52.524269
1753.906250	-51.896004
1754.882812	-52.392471
1755.859375	-51.695305
1756.835938	-52.236252
1757.812500	-52.557098
1758.789062	-52.640491
1759.765625	-51.976913
1760.742188	-52.412964
1761.718750	-51.962276
1762.695312	-50.767376
1763.671875	-51.619595
1764.648438	-52.778595
1765.625000	-51.608486
1766.601562	-53.299660
1767.578125	-52.903294
1768.554688	-51.102848
1769.531250	-50.100365
1770.507812	-52.291683
1771.484375	-52.341526
1772.460938	-51.004814
1773.437500	-51.376522
1774.414062	-51.805775
1775.390625	-51.421921
1776.367188	-51.872684
1777.343750	-51.827854
1778.320312	-51.747330
1779.296875	-50.258518
1780.273438	-51.048943
1781.250000	-52.296810
1782.226562	-51.558098
1783.203125	-52.517872
1784.179688	-51.239532
1785.156250	-51.069202
1786.132812	-51.627628
1787.109375	-51.361286
1788.085938	-51.986008
1789.062500	-51.056496
1790.039062	-50.758228
1791.015625	-51.980347
1791.992188	-52.940155
1792.968750	-51.302967
1793.945312	-51.531792
1794.921875	-50.266338
1795.898438	-51.948910
1796.875000	-51.250954
1797.851562	-52.586941
1798.828125	-51.342014
1799.804688	-51.809292
1800.781250	-51.234989
1801.757812	-51.635464
1802.734375	-52.118820
1803.710938	-51.616829
1804.687500	-51.448009
1805.664062	-51.626396
1806.640625	-51.380627
1807.617188	-51.926846
1808.593750	-51.576866
1809.570312	-52.879326
1810.546875	-50.839287
1811.523438	-52.004230
1812.500000	-51.690948
1813.476562	-52.920002
1814.453125	-51.906185
1815.429688	-51.511520
1816.406250	-52.017467
1817.382812	-53.011681
1818.359375	-51.872040
1819.335938	-52.531708
1820.312500	-51.687668
1821.289062	-52.147205
1822.265625	-52.197918
1823.242188	-51.755177
1824.218750	-52.452686
1825.195312	-52.773628
1826.171875	-53.151592
1827.148438	-51.553791
1828.125000	-52.178341
1829.101562	-52.136051
1830.078125	-51.327892
1831.054688	-50.751492
1832.031250	-52.373047
1833.007812	-52.521072
1833.984375	-51.356083
1834.960938	-51.895500
1835.937500	-51.767296
1836.914062	-52.002804
1837.890625	-51.388012
1838.867188	-51.193844
1839.843750	-54.149876
1840.820312	-51.735970
1841.796875	-51.537418
1842.773438	-52.355450
1843.750000	-51.065514
1844.726562	-50.935387
1845.703125	-52.493748
1846.679688	-52.040543
1847.656250	-52.749718
1848.632812	-52.157635
1849.609375	-50.705921
1850.585938	-50.990505
1851.562500	-52.034534
1852.539062	-52.354397
1853.515625	-52.675430
1854.492188	-51.867432
1855.468750	-51.877750
1856.445312	-50.865932
1857.421875	-52.706287
1858.398438	-51.731617
1859.375000	-51.272285
1860.351562	-52.506680
1861.328125	-50.578613
1862.304688	-51.354187
1863.281250	-52.404285
1864.257812	-51.855289
1865.234375	-51.084743
1866.210938	-51.291458
1867.187500	-51.679222
1868.164062	-52.122711
1869.140625	-52.086250
1870.117188	-52.018978
1871.093750	-52.416866
1872.070312	-51.862892
1873.046875	-51.836716
1874.023438	-52.314663
1875.000000	-52.039486
1875.976562	-51.209499
1876.953125	-51.896564
1877.929688	-51.225929
1878.906250	-52.168442
1879.882812	-50.712685
1880.859375	-52.330811
1881.835938	-52.609699
1882.812500	-52.648750
1883.789062	-52.306461
1884.765625	-52.230274
1885.742188	-51.545914
1886.718750	-51.236256
1887.695312	-51.669708
1888.671875	-51.447468
1889.648438	-53.182728
1890.625000	-52.543591
1891.601562	-52.385155
1892.578125	-51.854237
1893.554688	-52.113819
1894.531250	-53.854885
1895.507812	-53.400547
1896.484375	-51.977772
1897.460938	-52.257229
1898.437500	-51.849499
1899.414062	-52.137455
1900.390625	-51.796997
1901.367188	-51.157188
1902.343750	-51.552292
1903.320312	-52.564476
1904.296875	-51.802170
1905.273438	-53.147881
1906.250000	-51.256584
1907.226562	-51.732059
1908.203125	-52.154449
1909.179688	-52.080727
1910.156250	-51.832897
1911.132812	-50.972515
1912.109375	-51.654808
1913.085938	-51.632019
1914.062500	-52.265667
1915.039062	-52.265385
1916.015625	-50.571056
1916.992188	-51.758343
1917.968750	-50.996044
1918.945312	-52.219551
1919.921875	-51.476860
1920.898438	-50.899872
1921.875000	-52.075687
1922.851562	-52.508423
1923.828125	-51.990261
1924.804688	-52.010723
1925.781250	-52.103363
1926.757812	-52.022636
1927.734375	-50.835892
1928.710938	-52.347137
1929.687500	-51.078995
1930.664062	-52.773418
1931.640625	-51.626633
1932.617188	-51.149479
1933.593750	-51.877937
1934.570312	-52.159996
1935.546875	-51.678925
1936.523438	-52.098030
1937.500000	-51.675266
1938.476562	-52.313381
1939.453125	-51.680447
1940.429688	-51.733578
1941.406250	-51.240967
1942.382812	-51.840069
1943.359375	-51.776100
1944.335938	-51.201763
1945.312500	-52.195000
1946.289062	-51.419151
1947.265625	-51.567081
1948.242188	-52.253307
1949.218750	-51.199631
1950.195312	-51.574917
1951.171875	-51.965652
1952.148438	-52.002308
1953.125000	-51.634800
1954.101562	-52.398640
1955.078125	-52.083370
1956.054688	-52.525093
1957.031250	-49.534313
1958.007812	-50.599449
1958.984375	-50.085144
1959.960938	-51.660278
1960.937500	-52.274612
1961.914062	-51.535934
1962.890625	-51.203213
1963.867188	-51.824528
1964.843750	-51.094585
1965.820312	-52.031940
1966.796875	-52.161526
1967.773438	-51.286697
1968.750000	-51.506523
1969.726562	-52.688877
1970.703125	-52.963093
1971.679688	-52.589043
1972.656250	-51.363323
1973.632812	-52.910191
1974.609375	-51.627605
1975.585938	-52.085083
1976.562500	-51.421307
1977.539062	-52.143093
1978.515625	-51.106182
1979.492188	-50.773251
1980.468750	-53.016068
1981.445312	-52.582268
1982.421875	-51.102962
1983.398438	-52.002296
1984.375000	-52.671650
1985.351562	-51.690979
1986.328125	-52.105709
1987.304688	-50.902847
1988.281250	-51.670071
1989.257812	-51.072502
1990.234375	-52.218342
1991.210938	-51.811859
1992.187500	-52.070702
1993.164062	-52.404659
1994.140625	-50.841743
1995.117188	-52.330460
1996.093750	-51.469868
1997.070312	-52.986015
1998.046875	-51.849430
1999.023438	-51.953442
2000.000000	-51.910980
2000.976562	-53.023342
2001.953125	-52.626217
2002.929688	-51.852871
2003.906250	-51.805462
2004.882812	-52.660999
2005.859375	-51.138748
2006.835938	-51.181160
2007.812500	-52.214703
2008.789062	-52.175304
2009.765625	-51.886009
2010.742188	-52.488129
2011.718750	-51.834927
2012.695312	-50.766903
2013.671875	-50.574795
2014.648438	-52.303391
2015.625000	-50.739429
2016.601562	-51.843010
2017.578125	-50.454075
2018.554688	-52.207310
2019.531250	-52.227448
2020.507812	-51.213463
2021.484375	-51.669609
2022.460938	-52.936607
2023.437500	-52.248638
2024.414062	-51.946678
2025.390625	-51.942417
2026.367188	-51.547359
2027.343750	-51.695873
2028.320312	-50.985317
2029.296875	-51.088207
2030.273438	-51.844307
2031.250000	-51.906265
2032.226562	-52.247650
2033.203125	-51.822929
2034.179688	-52.091476
2035.156250	-51.080353
2036.132812	-51.413021
2037.109375	-51.655804
2038.085938	-51.630703
2039.062500	-50.876572
2040.039062	-52.151070
2041.015625	-51.803139
2041.992188	-51.111401
2042.968750	-51.028187
2043.945312	-50.144909
2044.921875	-50.749313
2045.898438	-50.821518
2046.875000	-50.652916
2047.851562	-51.419277
2048.828125	-51.314949
2049.804688	-51.941368
2050.781250	-50.590794
2051.757812	-52.319450
2052.734375	-51.769783
2053.710938	-51.559723
2054.687500	-52.305592
2055.664062	-52.438606
2056.640625	-51.646065
2057.617188	-50.828777
2058.593750	-51.642082
2059.570312	-52.140041
2060.546875	-50.175816
2061.523438	-52.525551
2062.500000	-52.295803
2063.476562	-52.597248
2064.453125	-53.618046
2065.429688	-51.309631
2066.406250	-52.203632
2067.382812	-51.027527
2068.359375	-51.170967
2069.335938	-52.011734
2070.312500	-51.725536
2071.289062	-51.287155
2072.265625	-52.086433
2073.242188	-51.335144
2074.218750	-53.703636
2075.195312	-53.059433
2076.171875	-51.190769
2077.148438	-51.167107
2078.125000	-50.944942
2079.101562	-52.364941
2080.078125	-51.002258
2081.054688	-51.741589
2082.031250	-51.872593
2083.007812	-51.845142
2083.984375	-51.877964
2084.960938	-53.025745
2085.937500	-51.846264
2086.914062	-52.396275
2087.890625	-52.916161
2088.867188	-52.449596
2089.843750	-51.714199
2090.820312	-52.196037
2091.796875	-50.863373
2092.773438	-49.906361
2093.750000	-51.887917
2094.726562	-52.396328
2095.703125	-51.830261
2096.679688	-52.092220
2097.656250	-52.155457
2098.632812	-52.230682
2099.609375	-51.890907
2100.585938	-52.365288
2101.562500	-52.305172
2102.539062	-51.183208
2103.515625	-51.397480
2104.492188	-51.212719
2105.468750	-52.188507
2106.445312	-51.932732
2107.421875	-53.568516
2108.398438	-51.199593
2109.375000	-50.677444
2110.351562	-51.255974
2111.328125	-52.800323
2112.304688	-51.424072
2113.281250	-51.305664
2114.257812	-51.766945
2115.234375	-51.272694
2116.210938	-51.409462
2117.187500	-52.086647
2118.164062	-51.054550
2119.140625	-52.603004
2120.117188	-51.806210
2121.093750	-51.056992
2122.070312	-51.721653
2123.046875	-51.740108
2124.023438	-52.155354
2125.000000	-51.474102
2125.976562	-52.344963
2126.953125	-51.631374
2127.929688	-52.115978
2128.906250	-51.528374
2129.882812	-52.708015
2130.859375	-50.622974
2131.835938	-51.822937
2132.812500	-51.238472
2133.789062	-51.914223
2134.765625	-52.248737
2135.742188	-50.896385
2136.718750	-51.485836
2137.695312	-52.666344
2138.671875	-52.542397
2139.648438	-51.918930
2140.625000	-50.386700
2141.601562	-50.422417
2142.578125	-53.192303
2143.554688	-53.273918
2144.531250	-52.321781
2145.507812	-51.205349
2146.484375	-52.111927
2147.460938	-50.905540
2148.437500	-50.696213
2149.414062	-52.566254
2150.390625	-51.631042
2151.367188	-50.947018
2152.343750	-50.865059
2153.320312	-51.696522
2154.296875	-53.379639
2155.273438	-54.362823
2156.250000	-51.984264
2157.226562	-51.214165
2158.203125	-51.122593
2159.179688	-52.256199
2160.156250	-51.514187
2161.132812	-52.953041
2162.109375	-51.785717
2163.085938	-51.721138
2164.062500	-51.878017
2165.039062	-51.325134
2166.015625	-51.862988
2166.992188	-51.838287
2167.968750	-51.862957
2168.945312	-51.539299
2169.921875	-51.784210
2170.898438	-51.701210
2171.875000	-51.629421
2172.851562	-51.686890
2173.828125	-52.286911
2174.804688	-51.655396
2175.781250	-52.269413
2176.757812	-51.499920
2177.734375	-51.922245
2178.710938	-52.123066
2179.687500	-51.130733
2180.664062	-51.272507
2181.640625	-50.648796
2182.617188	-50.477631
2183.593750	-52.968925
2184.570312	-52.186527
2185.546875	-52.462864
2186.523438	-51.345592
2187.500000	-51.598648
2188.476562	-51.833870
2189.453125	-52.217644
2190.429688	-51.199612
2191.406250	-51.760124
2192.382812	-50.630611
2193.359375	-51.434643
2194.335938	-51.289158
2195.312500	-52.090096
2196.289062	-52.432049
2197.265625	-52.280987
2198.242188	-52.600628
2199.218750	-52.249348
2200.195312	-53.388756
2201.171875	-51.474541
2202.148438	-51.317749
2203.125000	-51.578838
2204.101562	-50.347233
2205.078125	-50.992355
2206.054688	-52.498817
2207.031250	-51.143551
2208.007812	-52.900879
2208.984375	-51.754868
2209.960938	-51.453735
2210.937500	-51.715149
2211.914062	-51.967827
2212.890625	-52.272232
2213.867188	-50.944653
2214.843750	-52.585270
2215.820312	-51.673325
2216.796875	-50.895931
2217.773438	-50.756470
2218.750000	-51.353867
2219.726562	-51.169762
2220.703125	-52.594517
2221.679688	-51.373756
2222.656250	-51.477219
2223.632812	-52.520191
2224.609375	-52.019577
2225.585938	-52.456017
2226.562500	-50.993137
2227.539062	-50.553192
2228.515625	-50.726875
2229.492188	-50.445976
2230.468750	-51.714798
2231.445312	-52.637821
2232.421875	-50.849453
2233.398438	-51.293552
2234.375000	-50.107849
2235.351562	-51.020149
2236.328125	-51.540020
2237.304688	-52.638382
2238.281250	-51.900612
2239.257812	-52.170837
2240.234375	-51.423401
2241.210938	-53.081314
2242.187500	-53.185188
2243.164062	-51.050865
2244.140625	-51.480095
2245.117188	-52.051968
2246.093750	-52.645401
2247.070312	-52.403629
2248.046875	-52.535378
2249.023438	-53.335609
2250.000000	-52.328323
2250.976562	-52.380787
2251.953125	-52.964226
2252.929688	-50.991539
2253.906250	-51.923656
2254.882812	-51.851986
2255.859375	-51.712345
2256.835938	-50.979961
2257.812500	-51.409260
2258.789062	-52.571739
2259.765625	-52.530380
2260.742188	-52.761826
2261.718750	-52.305668
2262.695312	-51.543934
2263.671875	-51.828808
2264.648438	-51.555813
2265.625000	-51.398926
2266.601562	-51.364868
2267.578125	-52.009071
2268.554688	-51.673714
2269.531250	-51.477158
2270.507812	-52.291370
2271.484375	-52.777790
2272.460938	-52.048031
2273.437500	-53.090652
2274.414062	-50.932289
2275.390625	-51.647804
2276.367188	-53.240391
2277.343750	-51.693100
2278.320312	-51.603176
2279.296875	-51.662102
2280.273438	-50.690617
2281.250000	-51.133183
2282.226562	-51.744785
2283.203125	-52.141232
2284.179688	-51.051182
2285.156250	-51.988380
2286.132812	-52.650726
2287.109375	-51.606071
2288.085938	-52.186718
2289.062500	-52.514503
2290.039062	-52.896904
2291.015625	-50.609936
2291.992188	-51.245029
2292.968750	-51.238819
2293.945312	-51.141148
2294.921875	-50.939789
2295.898438	-51.433651
2296.875000	-51.603748
2297.851562	-51.888638
2298.828125	-52.271358
2299.804688	-52.953163
2300.781250	-51.345592
2301.757812	-51.626038
2302.734375	-52.299862
2303.710938	-51.723545
2304.687500	-50.227207
2305.664062	-50.540653
2306.640625	-50.967747
2307.617188	-51.250561
2308.593750	-51.434406
2309.570312	-51.402679
2310.546875	-51.937069
2311.523438	-51.737236
2312.500000	-51.287285
2313.476562	-51.636299
2314.453125	-51.972622
2315.429688	-50.890965
2316.406250	-51.551739
2317.382812	-51.751945
2318.359375	-53.153988
2319.335938	-52.681885
2320.312500	-52.097145
2321.289062	-52.411591
2322.265625	-52.360901
2323.242188	-52.762035
2324.218750	-52.038288
2325.195312	-51.181194
2326.171875	-50.865406
2327.148438	-51.075146
2328.125000	-51.528831
2329.101562	-51.794975
2330.078125	-51.250324
2331.054688	-50.968983
2332.031250	-50.895557
2333.007812	-51.177536
2333.984375	-50.874298
2334.960938	-52.758118
2335.937500	-52.341396
2336.914062	-51.788422
2337.890625	-51.906349
2338.867188	-51.700260
2339.843750	-51.558807
2340.820312	-52.793736
2341.796875	-53.071545
2342.773438	-51.680386
2343.750000	-53.239941
2344.726562	-52.199223
2345.703125	-52.184158
2346.679688	-53.509773
2347.656250	-53.030807
2348.632812	-51.004253
2349.609375	-52.191597
2350.585938	-52.391937
2351.562500	-52.566769
2352.539062	-51.259693
2353.515625	-50.834526
2354.492188	-51.544575
2355.468750	-52.680874
2356.445312	-52.268108
2357.421875	-51.531651
2358.398438	-51.781124
2359.375000	-51.263847
2360.351562	-51.309776
2361.328125	-51.401493
2362.304688	-51.768089
2363.281250	-51.241001
2364.257812	-50.551777
2365.234375	-52.959114
2366.210938	-52.390171
2367.187500	-51.391788
2368.164062	-52.187988
2369.140625	-52.030460
2370.117188	-50.265141
2371.093750	-50.621365
2372.070312	-51.651375
2373.046875	-52.502747
2374.023438	-51.688713
2375.000000	-52.599480
2375.976562	-51.646629
2376.953125	-51.708698
2377.929688	-51.446716
2378.906250	-50.754684
2379.882812	-51.441139
2380.859375	-51.497501
2381.835938	-51.134628
2382.812500	-51.784290
2383.789062	-51.411278
2384.765625	-52.229057
2385.742188	-51.630577
2386.718750	-51.191120
2387.695312	-52.277256
2388.671875	-51.563011
2389.648438	-51.751362
2390.625000	-51.995918
2391.601562	-52.145058
2392.578125	-51.347027
2393.554688	-50.292198
2394.531250	-51.299301
2395.507812	-50.869907
2396.484375	-51.121803
2397.460938	-50.830372
2398.437500	-50.624268
2399.414062	-51.133934
2400.390625	-51.676476
2401.367188	-51.113239
2402.343750	-51.993530
2403.320312	-52.560181
2404.296875	-52.378792
2405.273438	-52.807102
2406.250000	-51.440086
2407.226562	-51.209671
2408.203125	-51.060249
2409.179688	-52.138252
2410.156250	-52.044983
2411.132812	-51.252342
2412.109375	-51.803467
2413.085938	-50.940002
2414.062500	-52.155453
2415.039062	-52.569820
2416.015625	-53.254616
2416.992188	-50.923794
2417.968750	-51.243504
2418.945312	-52.858063
2419.921875	-51.605190
2420.898438	-51.922474
2421.875000	-51.894444
2422.851562	-51.951202
2423.828125	-51.152561
2424.804688	-51.832817
2425.781250	-52.365574
2426.757812	-50.631538
2427.734375	-51.172085
2428.710938	-50.708778
2429.687500	-51.418629
2430.664062	-52.595337
2431.640625	-51.642742
2432.617188	-52.272785
2433.593750	-51.584862
2434.570312	-51.335526
2435.546875	-52.581596
2436.523438	-52.623131
2437.500000	-52.521984
2438.476562	-52.552868
2439.453125	-52.055084
2440.429688	-51.395676
2441.406250	-50.848782
2442.382812	-51.699295
2443.359375	-51.752895
2444.335938	-52.758869
2445.312500	-51.960270
2446.289062	-52.302921
2447.265625	-51.576702
2448.242188	-50.711788
2449.218750	-52.055847
2450.195312	-51.039291
2451.171875	-52.566891
2452.148438	-51.598129
2453.125000	-51.315922
2454.101562	-51.547237
2455.078125	-51.076157
2456.054688	-51.933750
2457.031250	-52.198265
2458.007812	-50.743401
2458.984375	-50.974144
2459.960938	-51.355930
2460.937500	-52.011444
2461.914062	-50.872307
2462.890625	-52.684216
2463.867188	-52.348656
2464.843750	-50.263191
2465.820312	-50.976341
2466.796875	-52.240200
2467.773438	-51.653713
2468.750000	-50.841640
2469.726562	-52.763897
2470.703125	-51.687481
2471.679688	-51.280876
2472.656250	-52.621216
2473.632812	-51.952072
2474.609375	-51.438602
2475.585938	-51.684189
2476.562500	-51.895203
2477.539062	-51.982555
2478.515625	-52.199726
2479.492188	-52.364693
2480.468750	-51.399456
2481.445312	-51.430481
2482.421875	-50.530811
2483.398438	-52.779930
2484.375000	-52.142788
2485.351562	-51.768223
2486.328125	-52.470188
2487.304688	-51.872257
2488.281250	-52.753666
2489.257812	-52.321640
2490.234375	-51.537216
2491.210938	-51.603363
2492.187500	-52.701256
2493.164062	-51.342609
2494.140625	-50.804050
2495.117188	-52.349773
2496.093750	-51.878700
2497.070312	-50.884315
2498.046875	-51.575619
2499.023438	-51.496468
2500.000000	-51.889538
2500.976562	-51.520882
2501.953125	-51.562206
2502.929688	-51.888081
2503.906250	-51.662441
2504.882812	-51.273270
2505.859375	-52.344124
2506.835938	-52.361572
2507.812500	-51.726517
2508.789062	-51.061394
2509.765625	-51.704975
2510.742188	-51.770092
2511.718750	-51.360710
2512.695312	-51.299828
2513.671875	-52.572689
2514.648438	-51.296341
2515.625000	-51.971966
2516.601562	-51.891365
2517.578125	-51.855736
2518.554688	-51.371223
2519.531250	-51.801907
2520.507812	-50.822208
2521.484375	-51.917336
2522.460938	-51.748459
2523.437500	-52.528088
2524.414062	-52.635506
2525.390625	-52.936485
2526.367188	-51.610836
2527.343750	-51.865021
2528.320312	-52.287952
2529.296875	-50.658394
2530.273438	-51.730042
2531.250000	-52.873547
2532.226562	-51.497185
2533.203125	-51.574471
2534.179688	-50.907299
2535.156250	-51.041630
2536.132812	-51.346672
2537.109375	-51.939262
2538.085938	-51.529945
2539.062500	-53.500397
2540.039062	-51.148582
2541.015625	-53.217892
2541.992188	-52.555622
2542.968750	-52.308846
2543.945312	-51.154949
2544.921875	-51.146610
2545.898438	-50.476101
2546.875000	-51.388992
2547.851562	-51.776241
2548.828125	-51.723286
2549.804688	-50.981030
2550.781250	-50.785339
2551.757812	-51.233898
2552.734375	-52.840458
2553.710938	-51.824757
2554.687500	-51.286945
2555.664062	-52.060150
2556.640625	-51.631142
2557.617188	-50.899437
2558.593750	-51.638615
2559.570312	-52.924469
2560.546875	-51.915653
2561.523438	-51.060291
2562.500000	-51.953861
2563.476562	-52.091682
2564.453125	-50.811703
2565.429688	-51.874058
2566.406250	-52.410946
2567.382812	-52.513351
2568.359375	-51.471111
2569.335938	-51.195950
2570.312500	-51.300716
2571.289062	-51.089172
2572.265625	-51.116051
2573.242188	-51.217083
2574.218750	-51.178516
2575.195312	-51.378632
2576.171875	-51.625454
2577.148438	-51.202385
2578.125000	-51.785854
2579.101562	-52.297810
2580.078125	-52.087296
2581.054688	-51.866081
2582.031250	-52.253403
2583.007812	-51.924908
2583.984375	-51.951668
2584.960938	-53.263603
2585.937500	-51.201527
2586.914062	-51.433609
2587.890625	-51.910324
2588.867188	-52.263786
2589.843750	-52.379684
2590.820312	-52.165512
2591.796875	-50.441093
2592.773438	-52.499405
2593.750000	-51.388027
2594.726562	-51.765984
2595.703125	-53.096924
2596.679688	-51.250252
2597.656250	-51.693436
2598.632812	-51.785069
2599.609375	-51.095196
2600.585938	-50.030781
2601.562500	-51.591995
2602.539062	-53.163345
2603.515625	-52.093513
2604.492188	-50.481541
2605.468750	-51.121666
2606.445312	-51.846630
2607.421875	-52.247681
2608.398438	-51.611362
2609.375000	-51.263351
2610.351562	-51.343071
2611.328125	-50.776688
2612.304688	-51.509323
2613.281250	-52.031395
2614.257812	-51.564072
2615.234375	-51.486553
2616.210938	-51.674343
2617.187500	-49.948700
2618.164062	-52.617908
2619.140625	-52.746857
2620.117188	-51.055424
2621.093750	-51.225700
2622.070312	-51.222733
2623.046875	-52.474957
2624.023438	-53.388165
2625.000000	-52.495449
2625.976562	-52.275707
2626.953125	-51.655792
2627.929688	-51.055580
2628.906250	-52.951580
2629.882812	-51.463707
2630.859375	-51.662628
2631.835938	-51.818581
2632.812500	-51.791397
2633.789062	-52.913559
2634.765625	-51.627739
2635.742188	-52.899620
2636.718750	-52.318466
2637.695312	-52.026421
2638.671875	-51.244812
2639.648438	-51.754589
2640.625000	-52.311340
2641.601562	-53.454765
2642.578125	-51.889359
2643.554688	-50.943611
2644.531250	-51.397877
2645.507812	-51.209236
2646.484375	-51.055729
2647.460938	-51.761810
2648.437500	-52.236176
2649.414062	-52.315350
2650.390625	-50.559574
2651.367188	-52.551029
2652.343750	-52.088238
2653.320312	-51.737919
2654.296875	-51.492088
2655.273438	-51.022678
2656.250000	-52.541355
2657.226562	-51.398296
2658.203125	-51.434792
2659.179688	-51.858948
2660.156250	-52.573360
2661.132812	-52.545540
2662.109375	-51.815208
2663.085938	-51.802479
2664.062500	-52.130348
2665.039062	-50.541641
2666.015625	-53.240459
2666.992188	-50.921638
2667.968750	-50.651157
2668.945312	-51.879288
2669.921875	-50.567314
2670.898438	-52.078129
2671.875000	-51.981071
2672.851562	-52.828724
2673.828125	-51.735874
2674.804688	-52.021355
2675.781250	-52.328495
2676.757812	-51.746574
2677.734375	-51.957382
2678.710938	-52.264317
2679.687500	-51.273628
2680.664062	-52.835949
2681.640625	-51.830803
2682.617188	-51.202702
2683.593750	-51.789597
2684.570312	-52.906292
2685.546875	-51.606533
2686.523438	-52.601368
2687.500000	-51.324009
2688.476562	-51.343842
2689.453125	-52.762653
2690.429688	-53.248302
2691.406250	-51.942932
2692.382812	-51.249920
2693.359375	-50.997414
2694.335938	-53.115120
2695.312500	-51.478493
2696.289062	-52.258984
2697.265625	-53.115124
2698.242188	-52.957977
2699.218750	-51.972187
2700.195312	-50.679653
2701.171875	-51.694920
2702.148438	-50.877819
2703.125000	-51.025181
2704.101562	-51.585789
2705.078125	-51.914852
2706.054688	-51.544460
2707.031250	-50.690605
2708.007812	-52.314331
2708.984375	-50.850060
2709.960938	-51.795845
2710.937500	-51.644371
2711.914062	-52.038876
2712.890625	-51.833988
2713.867188	-51.083035
2714.843750	-51.792477
2715.820312	-50.820930
2716.796875	-51.225536
2717.773438	-51.373009
2718.750000	-51.593472
2719.726562	-50.584396
2720.703125	-52.057243
2721.679688	-51.580883
2722.656250	-52.253178
2723.632812	-51.224812
2724.609375	-53.379875
2725.585938	-52.168983
2726.562500	-51.868942
2727.539062	-51.863068
2728.515625	-51.678883
2729.492188	-51.296215
2730.468750	-51.096603
2731.445312	-52.204292
2732.421875	-52.778301
2733.398438	-52.559231
2734.375000	-50.942993
2735.351562	-51.601818
2736.328125	-51.516792
2737.304688	-51.749832
2738.281250	-52.111725
2739.257812	-51.563576
2740.234375	-50.254570
2741.210938	-51.296783
2742.187500	-51.560562
2743.164062	-52.077965
2744.140625	-51.571133
2745.117188	-52.078480
2746.093750	-51.929016
2747.070312	-52.745743
2748.046875	-52.863998
2749.023438	-51.514957
2750.000000	-51.607441
2750.976562	-50.187660
2751.953125	-51.103886
2752.929688	-52.067467
2753.906250	-51.757259
2754.882812	-51.600208
2755.859375	-51.495430
2756.835938	-52.369167
2757.812500	-52.002464
2758.789062	-51.348980
2759.765625	-51.138004
2760.742188	-52.934837
2761.718750	-52.839954
2762.695312	-51.188042
2763.671875	-52.045219
2764.648438	-51.487591
2765.625000	-51.232826
2766.601562	-52.895821
2767.578125	-51.389786
2768.554688	-51.889648
2769.531250	-52.041424
2770.507812	-51.322617
2771.484375	-51.660450
2772.460938	-51.751572
2773.437500	-53.096325
2774.414062	-51.434540
2775.390625	-52.427837
2776.367188	-51.534370
2777.343750	-51.992073
2778.320312	-52.284817
2779.296875	-50.273422
2780.273438	-51.417984
2781.250000	-51.696983
2782.226562	-52.775295
2783.203125	-52.066193
2784.179688	-51.598545
2785.156250	-50.973515
2786.132812	-50.305050
2787.109375	-51.649685
2788.085938	-52.133919
2789.062500	-51.310787
2790.039062	-51.297993
2791.015625	-51.879936
2791.992188	-52.252262
2792.968750	-51.137619
2793.945312	-51.762333
2794.921875	-52.053768
2795.898438	-52.344437
2796.875000	-50.479633
2797.851562	-50.596291
2798.828125	-52.249172
2799.804688	-51.806232
2800.781250	-52.628399
2801.757812	-52.665253
2802.734375	-53.368336
2803.710938	-51.666031
2804.687500	-52.020256
2805.664062	-51.645802
2806.640625	-51.744251
2807.617188	-51.039455
2808.593750	-51.149193
2809.570312	-51.117771
2810.546875	-51.355743
2811.523438	-52.247066
2812.500000	-51.793087
2813.476562	-51.666779
2814.453125	-50.254509
2815.429688	-51.540035
2816.406250	-51.102371
2817.382812	-52.741688
2818.359375	-52.179901
2819.335938	-51.158596
2820.312500	-50.982952
2821.289062	-51.007599
2822.265625	-51.820625
2823.242188	-51.301289
2824.218750	-50.609608
2825.195312	-51.340412
2826.171875	-51.265736
2827.148438	-51.112774
2828.125000	-51.301571
2829.101562	-51.182384
2830.078125	-51.691845
2831.054688	-53.843948
2832.031250	-51.657295
2833.007812	-51.952927
2833.984375	-52.048767
2834.960938	-51.536438
2835.937500	-51.812416
2836.914062	-51.515064
2837.890625	-51.513638
2838.867188	-52.215218
2839.843750	-51.682224
2840.820312	-51.509354
2841.796875	-51.087723
2842.773438	-51.139416
2843.750000	-51.639046
2844.726562	-52.029884
2845.703125	-51.975971
2846.679688	-50.971119
2847.656250	-52.927094
2848.632812	-51.899395
2849.609375	-50.325245
2850.585938	-50.851463
2851.562500	-52.628845
2852.539062	-51.411995
2853.515625	-51.732944
2854.492188	-51.255138
2855.468750	-51.810745
2856.445312	-51.441582
2857.421875	-50.695599
2858.398438	-50.905224
2859.375000	-51.702236
2860.351562	-51.864841
2861.328125	-52.388416
2862.304688	-52.017372
2863.281250	-53.873611
2864.257812	-50.559124
2865.234375	-50.242012
2866.210938	-52.015266
2867.187500	-51.449131
2868.164062	-50.366795
2869.140625	-52.292728
2870.117188	-52.211731
2871.093750	-50.416702
2872.070312	-51.583420
2873.046875	-52.725014
2874.023438	-53.190655
2875.000000	-51.629860
2875.976562	-51.535545
2876.953125	-51.014645
2877.929688	-50.752148
2878.906250	-52.315983
2879.882812	-52.675117
2880.859375	-52.311207
2881.835938	-52.347466
2882.812500	-52.211597
2883.789062	-51.516064
2884.765625	-53.467064
2885.742188	-51.687859
2886.718750	-51.784454
2887.695312	-51.863487
2888.671875	-51.238205
2889.648438	-51.688629
2890.625000	-51.934452
2891.601562	-51.816673
2892.578125	-51.480541
2893.554688	-51.510201
2894.531250	-51.614399
2895.507812	-51.428288
2896.484375	-51.365719
2897.460938	-51.392345
2898.437500	-51.976009
2899.414062	-51.788837
2900.390625	-51.379395
2901.367188	-51.160801
2902.343750	-51.773376
2903.320312	-52.169735
2904.296875	-51.531898
2905.273438	-51.792355
2906.250000	-52.848404
2907.226562	-51.190536
2908.203125	-52.245590
2909.179688	-51.399426
2910.156250	-51.254627
2911.132812	-51.366535
2912.109375	-51.585552
2913.085938	-51.089867
2914.062500	-52.010509
2915.039062	-51.228985
2916.015625	-50.793720
2916.992188	-51.766045
2917.968750	-51.441219
2918.945312	-52.724491
2919.921875	-51.973709
2920.898438	-51.297920
2921.875000	-50.758968
2922.851562	-51.840015
2923.828125	-51.483761
2924.804688	-51.240646
2925.781250	-51.686207
2926.757812	-52.171803
2927.734375	-51.657330
2928.710938	-51.752033
2929.687500	-51.389771
2930.664062	-51.283112
2931.640625	-50.484154
2932.617188	-50.326210
2933.593750	-51.995182
2934.570312	-52.903385
2935.546875	-52.233002
2936.523438	-51.421673
2937.500000	-52.263767
2938.476562	-50.521004
2939.453125	-52.038597
2940.429688	-51.686954
2941.406250	-53.514278
2942.382812	-51.482838
2943.359375	-52.078568
2944.335938	-52.935505
2945.312500	-50.474815
2946.289062	-51.030918
2947.265625	-52.787872
2948.242188	-52.549637
2949.218750	-52.579933
2950.195312	-51.924847
2951.171875	-51.620312
2952.148438	-52.268852
2953.125000	-52.503967
2954.101562	-52.815369
2955.078125	-52.382874
2956.054688	-53.178951
2957.031250	-50.860001
2958.007812	-50.562496
2958.984375	-50.198120
2959.960938	-52.348995
2960.937500	-50.784122
2961.914062	-51.259129
2962.890625	-51.802696
2963.867188	-50.537437
2964.843750	-51.396751
2965.820312	-51.337292
2966.796875	-51.866436
2967.773438	-52.649384
2968.750000	-52.450554
2969.726562	-52.269440
2970.703125	-51.639980
2971.679688	-52.849995
2972.656250	-52.661289
2973.632812	-50.914783
2974.609375	-50.987606
2975.585938	-52.090927
2976.562500	-52.134449
2977.539062	-51.239902
2978.515625	-51.807289
2979.492188	-51.808529
2980.468750	-51.764793
2981.445312	-51.054802
2982.421875	-50.704212
2983.398438	-52.525177
2984.375000	-51.404697
2985.351562	-52.474403
2986.328125	-51.686428
2987.304688	-51.541546
2988.281250	-51.520016
2989.257812	-51.430790
2990.234375	-52.436390
2991.210938	-51.627560
2992.187500	-52.413586
2993.164062	-51.636269
2994.140625	-52.230511
2995.117188	-53.479546
2996.093750	-52.153362
2997.070312	-52.525112
2998.046875	-52.131027
2999.023438	-51.667610
3000.000000	-51.261524
3000.976562	-52.564129
3001.953125	-51.606323
3002.929688	-50.922737
3003.906250	-51.636059
3004.882812	-52.609921
3005.859375	-51.871853
3006.835938	-51.796707
3007.812500	-51.157650
3008.789062	-51.242100
3009.765625	-52.191097
3010.742188	-52.005291
3011.718750	-51.601261
3012.695312	-52.134388
3013.671875	-50.465847
3014.648438	-52.088421
3015.625000	-52.401329
3016.601562	-51.119225
3017.578125	-51.136074
3018.554688	-52.171505
3019.531250	-53.027710
3020.507812	-52.547138
3021.484375	-51.350792
3022.460938	-51.935242
3023.437500	-52.594791
3024.414062	-50.476749
3025.390625	-52.387802
3026.367188	-52.871891
3027.343750	-51.573433
3028.320312	-52.297543
3029.296875	-51.474316
3030.273438	-51.843826
3031.250000	-51.038124
3032.226562	-51.372318
3033.203125	-51.403690
3034.179688	-50.729908
3035.156250	-51.481255
3036.132812	-51.441738
3037.109375	-52.793037
3038.085938	-51.541615
3039.062500	-51.782791
3040.039062	-52.333775
3041.015625	-52.497837
3041.992188	-52.481113
3042.968750	-50.049690
3043.945312	-51.381611
3044.921875	-52.756901
3045.898438	-51.458260
3046.875000	-51.187561
3047.851562	-50.749660
3048.828125	-50.736298
3049.804688	-52.127411
3050.781250	-51.389858
3051.757812	-50.806049
3052.734375	-52.098427
3053.710938	-51.224190
3054.687500	-51.248577
3055.664062	-51.718784
3056.640625	-50.613804
3057.617188	-51.894451
3058.593750	-51.745762
3059.570312	-51.630363
3060.546875	-51.167999
3061.523438	-51.772461
3062.500000	-52.660809
3063.476562	-50.836067
3064.453125	-51.846748
3065.429688	-52.630714
3066.406250	-51.590324
3067.382812	-52.688828
3068.359375	-50.801064
3069.335938	-52.774487
3070.312500	-52.321899
3071.289062	-51.929607
3072.265625	-51.688423
3073.242188	-52.432697
3074.218750	-51.581646
3075.195312	-50.822697
3076.171875	-51.905529
3077.148438	-51.530861
3078.125000	-52.972576
3079.101562	-52.597878
3080.078125	-51.330212
3081.054688	-50.323135
3082.031250	-51.816494
3083.007812	-51.474991
3083.984375	-52.372517
3084.960938	-50.909607
3085.937500	-51.277821
3086.914062	-51.711807
3087.890625	-51.833622
3088.867188	-52.239162
3089.843750	-51.715881
3090.820312	-52.921291
3091.796875	-53.269299
3092.773438	-51.947994
3093.750000	-52.324020
3094.726562	-52.543415
3095.703125	-51.494480
3096.679688	-51.755657
3097.656250	-52.070061
3098.632812	-51.167912
3099.609375	-51.602654
3100.585938	-52.350800
3101.562500	-52.798214
3102.539062	-51.522541
3103.515625	-52.831970
3104.492188	-51.219318
3105.468750	-53.246407
3106.445312	-51.381744
3107.421875	-51.757137
3108.398438	-50.817078
3109.375000	-51.130363
3110.351562	-52.064346
3111.328125	-52.362888
3112.304688	-53.406685
3113.281250	-53.364422
3114.257812	-52.853165
3115.234375	-51.638519
3116.210938	-52.602280
3117.187500	-51.449883
3118.164062	-51.392941
3119.140625	-51.927456
3120.117188	-53.251163
3121.093750	-52.478069
3122.070312	-50.779377
3123.046875	-52.289394
3124.023438	-51.238583
3125.000000	-51.775314
3125.976562	-52.202980
3126.953125	-51.722332
3127.929688	-52.449448
3128.906250	-52.914104
3129.882812	-51.850452
3130.859375	-51.827560
3131.835938	-51.877186
3132.812500	-50.152794
3133.789062	-51.251289
3134.765625	-52.368095
3135.742188	-51.374104
3136.718750	-50.766697
3137.695312	-50.830601
3138.671875	-51.381783
3139.648438	-52.007183
3140.625000	-50.535683
3141.601562	-51.334240
3142.578125	-51.845142
3143.554688	-50.228214
3144.531250	-52.799759
3145.507812	-52.369999
3146.484375	-51.667850
3147.460938	-51.385712
3148.437500	-51.210728
3149.414062	-52.603008
3150.390625	-52.143578
3151.367188	-51.655197
3152.343750	-52.286179
3153.320312	-51.909515
3154.296875	-52.800621
3155.273438	-51.468880
3156.250000	-51.451973
3157.226562	-52.476837
3158.203125	-51.651783
3159.179688	-52.304066
3160.156250	-52.340721
3161.132812	-52.272003
3162.109375	-52.579746
3163.085938	-51.813972
3164.062500	-52.378178
3165.039062	-50.977619
3166.015625	-52.040348
3166.992188	-51.847057
3167.968750	-52.514713
3168.945312	-49.768356
3169.921875	-53.435959
3170.898438	-52.066223
3171.875000	-51.511929
3172.851562	-52.576572
3173.828125	-53.328957
3174.804688	-52.858044
3175.781250	-52.047382
3176.757812	-51.110176
3177.734375	-51.534611
3178.710938	-51.558327
3179.687500	-51.560062
3180.664062	-51.006126
3181.640625	-50.832775
3182.617188	-50.860672
3183.593750	-52.114304
3184.570312	-52.279121
3185.546875	-53.200932
3186.523438	-52.692406
3187.500000	-52.402122
3188.476562	-51.974827
3189.453125	-52.508999
3190.429688	-53.623363
3191.406250	-52.714916
3192.382812	-52.411339
3193.359375	-51.731049
3194.335938	-52.009472
3195.312500	-51.570072
3196.289062	-51.816433
3197.265625	-50.900761
3198.242188	-52.213856
3199.218750	-52.463612
3200.195312	-52.334961
3201.171875	-51.992283
3202.148438	-51.928894
3203.125000	-51.883789
3204.101562	-52.698185
3205.078125	-50.700741
3206.054688	-51.839584
3207.031250	-51.921387
3208.007812	-50.998974
3208.984375	-50.839565
3209.960938	-50.884815
3210.937500	-52.557518
3211.914062	-51.787460
3212.890625	-53.111019
3213.867188	-52.324085
3214.843750	-51.802715
3215.820312	-51.738525
3216.796875	-50.951668
3217.773438	-51.194500
3218.750000	-52.181942
3219.726562	-51.031189
3220.703125	-50.811787
3221.679688	-52.560951
3222.656250	-51.595238
3223.632812	-51.638874
3224.609375	-51.780113
3225.585938	-50.702732
3226.562500	-51.282917
3227.539062	-51.612167
3228.515625	-52.565441
3229.492188	-51.687744
3230.468750	-51.184906
3231.445312	-51.447842
3232.421875	-51.994869
3233.398438	-52.415371
3234.375000	-52.880875
3235.351562	-52.088627
3236.328125	-51.803421
3237.304688	-52.166668
3238.281250	-52.449783
3239.257812	-52.454021
3240.234375	-51.546356
3241.210938	-51.869698
3242.187500	-52.339848
3243.164062	-51.141029
3244.140625	-51.688297
3245.117188	-51.463730
3246.093750	-51.931625
3247.070312	-50.987545
3248.046875	-51.855209
3249.023438	-52.467491
3250.000000	-51.875137
3250.976562	-53.166641
3251.953125	-53.489273
3252.929688	-51.255852
3253.906250	-52.089832
3254.882812	-52.618031
3255.859375	-52.526653
3256.835938	-52.818363
3257.812500	-51.520798
3258.789062	-52.501350
3259.765625	-52.072445
3260.742188	-51.978577
3261.718750	-52.080746
3262.695312	-52.051636
3263.671875	-51.530231
3264.648438	-50.503201
3265.625000	-52.386723
3266.601562	-52.572243
3267.578125	-51.335194
3268.554688	-52.577332
3269.531250	-52.700943
3270.507812	-51.353527
3271.484375	-50.991016
3272.460938	-51.784374
3273.437500	-50.404942
3274.414062	-51.726883
3275.390625	-52.810101
3276.367188	-50.955643
3277.343750	-51.776390
3278.320312	-50.846077
3279.296875	-52.268711
3280.273438	-51.911373
3281.250000	-52.600555
3282.226562	-50.798527
3283.203125	-52.236416
3284.179688	-51.758789
3285.156250	-51.757153
3286.132812	-52.277531
3287.109375	-52.291256
3288.085938	-51.444702
3289.062500	-51.462078
3290.039062	-51.048069
3291.015625	-52.186195
3291.992188	-51.052952
3292.968750	-51.815636
3293.945312	-52.889366
3294.921875	-52.804420
3295.898438	-50.957687
3296.875000	-51.236813
3297.851562	-52.950741
3298.828125	-51.955818
3299.804688	-50.968941
3300.781250	-50.757504
3301.757812	-51.943947
3302.734375	-51.888187
3303.710938	-50.698162
3304.687500	-50.656254
3305.664062	-51.329231
3306.640625	-51.293804
3307.617188	-50.605297
3308.593750	-52.222668
3309.570312	-51.610703
3310.546875	-50.922237
3311.523438	-51.047707
3312.500000	-51.671227
3313.476562	-51.892509
3314.453125	-51.878445
3315.429688	-52.200607
3316.406250	-52.289360
3317.382812	-52.342163
3318.359375	-51.942284
3319.335938	-51.495304
3320.312500	-50.562820
3321.289062	-52.644028
3322.265625	-51.477501
3323.242188	-51.690998
3324.218750	-52.372841
3325.195312	-51.817982
3326.171875	-51.591034
3327.148438	-51.678112
3328.125000	-50.476913
3329.101562	-52.249241
3330.078125	-51.595676
3331.054688	-52.239853
3332.031250	-50.411167
3333.007812	-50.843983
3333.984375	-52.403099
3334.960938	-51.058128
3335.937500	-52.752277
3336.914062	-52.240318
3337.890625	-51.379009
3338.867188	-51.172493
3339.843750	-52.922825
3340.820312	-51.682331
3341.796875	-52.165249
3342.773438	-51.532539
3343.750000	-52.785137
3344.726562	-51.140614
3345.703125	-52.093769
3346.679688	-50.444279
3347.656250	-52.124958
3348.632812	-51.313648
3349.609375	-52.150566
3350.585938	-51.402069
3351.562500	-51.944302
3352.539062	-51.680889
3353.515625	-52.280304
3354.492188	-52.360607
3355.468750	-52.595493
3356.445312	-51.917084
3357.421875	-51.974201
3358.398438	-51.712444
3359.375000	-51.023232
3360.351562	-53.110256
3361.328125	-51.067528
3362.304688	-51.258862
3363.281250	-51.680408
3364.257812	-51.434574
3365.234375	-51.947697
3366.210938	-51.691319
3367.187500	-51.602173
3368.164062	-53.325863
3369.140625	-51.040524
3370.117188	-50.520512
3371.093750	-51.811260
3372.070312	-50.979771
3373.046875	-50.379936
3374.023438	-51.606789
3375.000000	-51.169346
3375.976562	-52.598476
3376.953125	-51.983372
3377.929688	-50.452427
3378.906250	-50.476353
3379.882812	-52.815609
3380.859375	-51.809822
3381.835938	-51.369213
3382.812500	-52.132538
3383.789062	-52.307022
3384.765625	-50.607243
3385.742188	-51.256298
3386.718750	-53.117821
3387.695312	-50.717556
3388.671875	-51.733578
3389.648438	-52.699749
3390.625000	-52.567924
3391.601562	-51.807247
3392.578125	-51.680855
3393.554688	-50.563931
3394.531250	-51.200260
3395.507812	-51.903324
3396.484375	-52.354099
3397.460938	-51.662457
3398.437500	-51.548435
3399.414062	-50.860157
3400.390625	-52.058846
3401.367188	-51.702995
3402.343750	-50.636013
3403.320312	-52.395561
3404.296875	-52.023712
3405.273438	-51.897099
3406.250000	-51.975384
3407.226562	-51.774536
3408.203125	-52.441811
3409.179688	-51.692791
3410.156250	-51.860947
3411.132812	-50.449306
3412.109375	-51.755463
3413.085938	-51.849216
3414.062500	-51.086151
3415.039062	-51.002514
3416.015625	-51.714130
3416.992188	-51.703686
3417.968750	-51.138157
3418.945312	-52.313713
3419.921875	-51.842041
3420.898438	-51.648151
3421.875000	-51.882938
3422.851562	-50.794842
3423.828125	-50.763649
3424.804688	-52.129341
3425.781250	-50.847340
3426.757812	-50.843666
3427.734375	-53.192188
3428.710938	-52.706188
3429.687500	-51.705612
3430.664062	-52.126854
3431.640625	-50.436531
3432.617188	-51.493053
3433.593750	-51.753975
3434.570312	-53.024544
3435.546875	-51.029659
3436.523438	-52.015553
3437.500000	-52.570206
3438.476562	-52.526012
3439.453125	-52.429516
3440.429688	-51.939171
3441.406250	-51.097351
3442.382812	-51.874611
3443.359375	-51.915287
3444.335938	-50.509480
3445.312500	-51.019970
3446.289062	-51.390484
3447.265625	-50.876236
3448.242188	-52.381466
3449.218750	-51.244770
3450.195312	-52.316402
3451.171875	-51.033649
3452.148438	-51.958725
3453.125000	-51.030144
3454.101562	-52.069016
3455.078125	-52.080299
3456.054688	-51.550663
3457.031250	-51.058716
3458.007812	-51.398399
3458.984375	-52.366241
3459.960938	-51.530064
3460.937500	-51.698814
3461.914062	-52.240849
3462.890625	-52.809944
3463.867188	-52.530594
3464.843750	-52.330540
3465.820312	-52.569382
3466.796875	-52.062061
3467.773438	-50.923870
3468.750000	-51.396919
3469.726562	-52.578094
3470.703125	-50.826836
3471.679688	-51.395046
3472.656250	-52.238358
3473.632812	-50.905376
3474.609375	-51.367744
3475.585938	-51.893883
3476.562500	-50.473999
3477.539062	-51.040668
3478.515625	-51.633152
3479.492188	-51.037247
3480.468750	-51.510620
3481.445312	-51.318733
3482.421875	-51.667274
3483.398438	-52.115086
3484.375000	-52.672192
3485.351562	-51.603291
3486.328125	-51.388065
3487.304688	-51.413666
3488.281250	-52.081501
3489.257812	-51.970268
3490.234375	-52.090221
3491.210938	-50.840229
3492.187500	-51.810738
3493.164062	-52.590420
3494.140625	-50.773083
3495.117188	-50.292725
3496.093750	-52.204269
3497.070312	-51.527023
3498.046875	-51.450527
3499.023438	-51.552509
3500.000000	-51.542965
3500.976562	-52.740433
3501.953125	-51.117241
3502.929688	-51.298397
3503.906250	-51.351593
3504.882812	-51.570522
3505.859375	-50.522938
3506.835938	-49.831940
3507.812500	-51.115047
3508.789062	-51.044941
3509.765625	-52.061405
3510.742188	-50.950970
3511.718750	-51.703060
3512.695312	-50.869980
3513.671875	-53.116604
3514.648438	-51.614540
3515.625000	-51.432678
3516.601562	-51.463612
3517.578125	-51.211773
3518.554688	-51.393551
3519.531250	-51.430958
3520.507812	-51.309593
3521.484375	-52.350281
3522.460938	-53.094204
3523.437500	-52.354221
3524.414062	-51.655846
3525.390625	-51.453503
3526.367188	-51.193344
3527.343750	-52.511189
3528.320312	-52.920151
3529.296875	-51.686863
3530.273438	-51.081230
3531.250000	-51.931850
3532.226562	-53.098904
3533.203125	-51.443684
3534.179688	-50.837959
3535.156250	-52.664265
3536.132812	-52.323162
3537.109375	-52.126083
3538.085938	-52.076271
3539.062500	-51.076138
3540.039062	-51.051548
3541.015625	-51.573845
3541.992188	-52.774685
3542.968750	-51.944393
3543.945312	-51.200306
3544.921875	-51.965897
3545.898438	-50.982544
3546.875000	-51.194359
3547.851562	-51.460548
3548.828125	-51.850834
3549.804688	-51.766075
3550.781250	-51.042332
3551.757812	-51.850620
3552.734375	-52.401711
3553.710938	-52.119926
3554.687500	-51.249332
3555.664062	-51.318775
3556.640625	-51.401402
3557.617188	-51.160172
3558.593750	-51.441055
3559.570312	-50.982067
3560.546875	-51.316593
3561.523438	-52.138958
3562.500000	-51.666607
3563.476562	-52.118340
3564.453125	-52.043003
3565.429688	-51.289604
3566.406250	-51.920086
3567.382812	-50.883278
3568.359375	-52.145676
3569.335938	-51.116444
3570.312500	-51.256836
3571.289062	-52.154259
3572.265625	-51.457596
3573.242188	-51.219818
3574.218750	-51.421692
3575.195312	-51.095592
3576.171875	-51.181927
3577.148438	-51.904877
3578.125000	-50.479210
3579.101562	-52.098785
3580.078125	-50.945835
3581.054688	-51.045303
3582.031250	-52.087227
3583.007812	-51.859867
3583.984375	-51.062138
3584.960938	-49.837322
3585.937500	-51.645626
3586.914062	-51.911251
3587.890625	-51.967323
3588.867188	-51.040077
3589.843750	-51.437012
3590.820312	-51.935787
3591.796875	-51.051643
3592.773438	-52.279236
3593.750000	-51.514473
3594.726562	-52.742893
3595.703125	-51.519485
3596.679688	-52.235096
3597.656250	-52.096321
3598.632812	-52.076603
3599.609375	-52.684090
3600.585938	-51.730125
3601.562500	-51.484261
3602.539062	-52.256336
3603.515625	-50.635288
3604.492188	-51.943916
3605.468750	-53.381943
3606.445312	-52.152462
3607.421875	-51.029541
3608.398438	-52.409447
3609.375000	-51.800598
3610.351562	-51.382843
3611.328125	-51.242348
3612.304688	-51.924717
3613.281250	-52.570759
3614.257812	-51.980476
3615.234375	-51.008247
3616.210938	-51.186520
3617.187500	-50.673508
3618.164062	-51.791527
3619.140625	-52.280689
3620.117188	-50.973930
3621.093750	-51.299541
3622.070312	-52.168453
3623.046875	-52.458149
3624.023438	-51.032356
3625.000000	-51.785492
3625.976562	-51.412754
3626.953125	-51.483440
3627.929688	-51.278881
3628.906250	-51.973724
3629.882812	-50.679714
3630.859375	-52.356449
3631.835938	-51.857117
3632.812500	-54.188396
3633.789062	-52.338245
3634.765625	-52.211014
3635.742188	-51.691944
3636.718750	-52.186821
3637.695312	-53.031048
3638.671875	-51.320499
3639.648438	-50.218811
3640.625000	-51.170876
3641.601562	-51.805588
3642.578125	-51.802700
3643.554688	-52.072762
3644.531250	-51.591412
3645.507812	-51.486954
3646.484375	-50.152828
3647.460938	-51.287239
3648.437500	-52.276138
3649.414062	-51.748974
3650.390625	-52.443901
3651.367188	-51.630371
3652.343750	-51.544373
3653.320312	-50.261963
3654.296875	-51.854713
3655.273438	-52.177410
3656.250000	-52.867821
3657.226562	-52.252201
3658.203125	-51.714172
3659.179688	-52.236176
3660.156250	-51.659187
3661.132812	-52.932152
3662.109375	-51.412506
3663.085938	-51.966759
3664.062500	-51.778080
3665.039062	-53.168709
3666.015625	-50.968502
3666.992188	-51.885044
3667.968750	-52.001102
3668.945312	-51.732918
3669.921875	-50.389709
3670.898438	-52.017380
3671.875000	-51.035870
3672.851562	-52.617634
3673.828125	-52.512253
3674.804688	-52.801197
3675.781250	-51.979183
3676.757812	-51.012539
3677.734375	-52.664970
3678.710938	-52.498280
3679.687500	-51.780006
3680.664062	-53.117039
3681.640625	-51.073593
3682.617188	-51.689209
3683.593750	-52.150261
3684.570312	-50.997417
3685.546875	-52.146656
3686.523438	-51.183929
3687.500000	-52.339130
3688.476562	-52.548706
3689.453125	-51.339798
3690.429688	-50.666546
3691.406250	-52.612129
3692.382812	-54.260509
3693.359375	-51.380886
3694.335938	-51.613033
3695.312500	-51.923473
3696.289062	-52.334763
3697.265625	-52.204216
3698.242188	-51.678619
3699.218750	-51.574936
3700.195312	-51.602215
3701.171875	-53.195694
3702.148438	-51.982845
3703.125000	-52.626762
3704.101562	-51.852688
3705.078125	-52.834297
3706.054688	-52.075996
3707.031250	-50.841190
3708.007812	-51.510689
3708.984375	-51.386597
3709.960938	-52.443264
3710.937500	-50.958046
3711.914062	-52.014690
3712.890625	-51.877625
3713.867188	-53.847286
3714.843750	-53.161396
3715.820312	-51.615566
3716.796875	-51.096073
3717.773438	-51.727249
3718.750000	-50.829521
3719.726562	-51.168110
3720.703125	-51.475452
3721.679688	-52.172588
3722.656250	-52.847832
3723.632812	-51.984516
3724.609375	-50.441776
3725.585938	-50.513138
3726.562500	-50.824673
3727.539062	-50.994602
3728.515625	-53.333729
3729.492188	-52.267666
3730.468750	-51.985836
3731.445312	-50.783585
3732.421875	-52.613792
3733.398438	-51.334480
3734.375000	-50.836628
3735.351562	-51.201595
3736.328125	-52.260273
3737.304688	-51.421078
3738.281250	-51.151436
3739.257812	-51.265377
3740.234375	-51.616238
3741.210938	-51.147247
3742.187500	-50.708557
3743.164062	-50.934345
3744.140625	-50.960613
3745.117188	-51.099442
3746.093750	-51.192795
3747.070312	-52.346230
3748.046875	-51.732346
3749.023438	-51.289822
3750.000000	-52.136898
3750.976562	-52.988987
3751.953125	-51.343628
3752.929688	-51.959106
3753.906250	-51.952007
3754.882812	-52.242352
3755.859375	-51.347088
3756.835938	-51.639042
3757.812500	-50.004803
3758.789062	-51.189312
3759.765625	-52.029755
3760.742188	-52.349590
3761.718750	-52.202610
3762.695312	-51.418171
3763.671875	-50.862907
3764.648438	-52.896568
3765.625000	-51.617760
3766.601562	-50.195923
3767.578125	-51.705822
3768.554688	-53.124825
3769.531250	-52.108360
3770.507812	-52.183666
3771.484375	-51.608994
3772.460938	-51.614773
3773.437500	-52.259480
3774.414062	-52.052177
3775.390625	-51.843025
3776.367188	-52.366146
3777.343750	-52.186199
3778.320312	-52.459335
3779.296875	-51.544147
3780.273438	-51.495010
3781.250000	-52.067265
3782.226562	-52.567280
3783.203125	-51.517197
3784.179688	-51.444016
3785.156250	-52.381451
3786.132812	-52.404411
3787.109375	-52.388687
3788.085938	-50.390892
3789.062500	-50.336990
3790.039062	-51.114731
3791.015625	-52.078468
3791.992188	-51.348656
3792.968750	-50.967178
3793.945312	-52.266216
3794.921875	-52.185501
3795.898438	-50.680847
3796.875000	-51.738579
3797.851562	-52.228073
3798.828125	-52.369492
3799.804688	-52.339230
3800.781250	-51.238571
3801.757812	-50.919598
3802.734375	-51.522034
3803.710938	-51.223598
3804.687500	-51.392429
3805.664062	-51.581326
3806.640625	-52.142311
3807.617188	-51.691490
3808.593750	-52.119633
3809.570312	-51.878719
3810.546875	-51.424301
3811.523438	-51.340618
3812.500000	-52.381107
3813.476562	-52.396938
3814.453125	-51.825600
3815.429688	-51.081261
3816.406250	-51.308365
3817.382812	-51.637653
3818.359375	-51.429291
3819.335938	-50.411831
3820.312500	-52.241707
3821.289062	-52.107307
3822.265625	-51.053249
3823.242188	-51.047455
3824.218750	-50.261326
3825.195312	-50.769516
3826.171875	-51.936935
3827.148438	-52.016312
3828.125000	-52.880779
3829.101562	-52.125141
3830.078125	-51.316242
3831.054688	-50.785473
3832.031250	-51.469963
3833.007812	-51.064926
3833.984375	-51.286995
3834.960938	-51.924679
3835.937500	-51.829906
3836.914062	-50.821487
3837.890625	-51.783958
3838.867188	-51.370255
3839.843750	-50.729244
3840.820312	-51.860767
3841.796875	-52.171352
3842.773438	-53.131706
3843.750000	-51.935905
3844.726562	-51.645237
3845.703125	-53.048969
3846.679688	-52.419872
3847.656250	-51.949699
3848.632812	-52.079456
3849.609375	-52.620434
3850.585938	-52.075569
3851.562500	-52.071743
3852.539062	-52.027100
3853.515625	-52.079929
3854.492188	-52.061092
3855.468750	-51.536369
3856.445312	-51.965683
3857.421875	-51.341442
3858.398438	-50.817398
3859.375000	-51.132301
3860.351562	-52.899872
3861.328125	-52.370934
3862.304688	-52.306370
3863.281250	-50.804249
3864.257812	-51.537693
3865.234375	-52.045685
3866.210938	-51.310478
3867.187500	-51.790390
3868.164062	-52.358055
3869.140625	-50.970924
3870.117188	-51.175331
3871.093750	-51.124134
3872.070312	-51.658367
3873.046875	-51.318356
3874.023438	-51.825832
3875.000000	-52.328392
3875.976562	-52.638660
3876.953125	-51.508926
3877.929688	-51.675972
3878.906250	-51.642113
3879.882812	-51.338505
3880.859375	-51.618504
3881.835938	-54.406403
3882.812500	-52.173065
3883.789062	-50.780117
3884.765625	-51.141586
3885.742188	-52.312199
3886.718750	-52.666397
3887.695312	-51.428139
3888.671875	-51.583645
3889.648438	-52.859447
3890.625000	-50.056358
3891.601562	-52.894325
3892.578125	-51.530811
3893.554688	-51.382515
3894.531250	-53.419960
3895.507812	-51.996254
3896.484375	-51.463531
3897.460938	-51.694756
3898.437500	-51.103687
3899.414062	-51.937073
3900.390625	-51.598320
3901.367188	-50.766338
3902.343750	-52.200859
3903.320312	-51.735203
3904.296875	-52.067497
3905.273438	-54.042145
3906.250000	-52.112522
3907.226562	-51.886135
3908.203125	-53.200718
3909.179688	-52.747646
3910.156250	-51.476353
3911.132812	-51.861237
3912.109375	-51.708824
3913.085938	-52.867531
3914.062500	-52.819828
3915.039062	-51.648560
3916.015625	-52.185780
3916.992188	-52.019913
3917.968750	-51.766529
3918.945312	-51.935558
3919.921875	-52.756989
3920.898438	-51.181652
3921.875000	-49.406937
3922.851562	-52.011288
3923.828125	-52.460091
3924.804688	-51.465710
3925.781250	-52.674900
3926.757812	-52.362228
3927.734375	-51.816246
3928.710938	-51.280125
3929.687500	-51.841015
3930.664062	-51.470871
3931.640625	-51.504147
3932.617188	-52.117188
3933.593750	-51.473648
3934.570312	-51.559238
3935.546875	-51.415520
3936.523438	-50.543320
3937.500000	-51.034035
3938.476562	-51.988041
3939.453125	-51.748154
3940.429688	-52.260124
3941.406250	-50.401134
3942.382812	-51.461220
3943.359375	-51.961395
3944.335938	-51.731766
3945.312500	-50.917545
3946.289062	-51.814232
3947.265625	-51.165306
3948.242188	-51.568222
3949.218750	-52.455303
3950.195312	-51.816860
3951.171875	-50.535988
3952.148438	-52.777195
3953.125000	-52.184158
3954.101562	-51.775768
3955.078125	-52.624176
3956.054688	-51.076523
3957.031250	-51.049305
3958.007812	-51.753197
3958.984375	-51.276901
3959.960938	-51.788235
3960.937500	-51.887638
3961.914062	-52.377563
3962.890625	-52.334499
3963.867188	-51.646885
3964.843750	-51.109512
3965.820312	-51.520855
3966.796875	-51.402493
3967.773438	-51.438995
3968.750000	-52.241764
3969.726562	-52.690849
3970.703125	-51.111340
3971.679688	-51.827267
3972.656250	-51.587231
3973.632812	-52.504101
3974.609375	-51.415028
3975.585938	-50.706165
3976.562500	-52.700115
3977.539062	-51.642811
3978.515625	-52.529320
3979.492188	-52.538013
3980.468750	-52.142727
3981.445312	-51.591896
3982.421875	-52.551277
3983.398438	-52.650990
3984.375000	-51.592228
3985.351562	-50.629837
3986.328125	-52.222336
3987.304688	-51.599705
3988.281250	-51.821384
3989.257812	-51.553776
3990.234375	-51.210484
3991.210938	-51.143955
3992.187500	-52.364342
3993.164062	-50.629650
3994.140625	-52.126980
3995.117188	-51.155567
3996.093750	-51.702076
3997.070312	-51.673454
3998.046875	-52.121956
3999.023438	-51.277706
4000.000000	-52.078194
4000.976562	-52.015194
4001.953125	-52.738476
4002.929688	-52.793396
4003.906250	-52.024944
4004.882812	-52.141357
4005.859375	-51.084530
4006.835938	-52.385441
4007.812500	-50.790974
4008.789062	-51.704281
4009.765625	-52.194237
4010.742188	-51.553108
4011.718750	-50.834953
4012.695312	-51.663410
4013.671875	-51.156612
4014.648438	-51.772503
4015.625000	-51.589844
4016.601562	-51.116394
4017.578125	-52.037300
4018.554688	-52.908325
4019.531250	-52.195667
4020.507812	-50.902027
4021.484375	-52.512142
4022.460938	-51.670956
4023.437500	-52.114273
4024.414062	-51.669296
4025.390625	-51.492805
4026.367188	-50.207684
4027.343750	-52.476158
4028.320312	-52.276295
4029.296875	-51.351757
4030.273438	-53.050148
4031.250000	-51.548271
4032.226562	-52.463009
4033.203125	-52.022358
4034.179688	-52.271168
4035.156250	-51.467136
4036.132812	-50.649765
4037.109375	-51.842724
4038.085938	-52.670975
4039.062500	-50.485222
4040.039062	-51.725643
4041.015625	-51.211971
4041.992188	-52.063049
4042.968750	-50.152412
4043.945312	-50.602547
4044.921875	-52.162842
4045.898438	-51.757713
4046.875000	-51.390701
4047.851562	-51.303108
4048.828125	-51.627975
4049.804688	-51.258011
4050.781250	-52.544388
4051.757812	-51.213692
4052.734375	-52.249367
4053.710938	-52.626152
4054.687500	-51.066204
4055.664062	-51.955704
4056.640625	-51.979145
4057.617188	-52.326542
4058.593750	-52.430359
4059.570312	-52.847141
4060.546875	-51.191376
4061.523438	-51.613628
4062.500000	-51.718998
4063.476562	-51.531036
4064.453125	-51.545082
4065.429688	-51.641243
4066.406250	-52.744228
4067.382812	-51.518661
4068.359375	-50.995964
4069.335938	-52.063454
4070.312500	-52.175121
4071.289062	-50.348625
4072.265625	-52.110218
4073.242188	-52.109703
4074.218750	-52.723972
4075.195312	-51.074501
4076.171875	-51.954674
4077.148438	-50.247009
4078.125000	-53.373600
4079.101562	-51.302883
4080.078125	-50.704964
4081.054688	-51.962772
4082.031250	-51.380356
4083.007812	-51.669643
4083.984375	-51.770954
4084.960938	-51.953918
4085.937500	-50.424862
4086.914062	-51.939693
4087.890625	-51.495071
4088.867188	-52.482525
4089.843750	-52.559788
4090.820312	-51.753132
4091.796875	-52.110447
4092.773438	-50.852592
4093.750000	-51.330574
4094.726562	-53.287914
4095.703125	-52.328072
4096.679688	-51.363159
4097.656250	-52.630219
4098.632812	-51.538368
4099.609375	-50.933456
4100.585938	-51.930763
4101.562500	-52.232906
4102.539062	-52.204559
4103.515625	-51.043098
4104.492188	-51.878563
4105.468750	-52.515339
4106.445312	-52.008266
4107.421875	-52.347866
4108.398438	-52.329788
4109.375000	-51.405155
4110.351562	-52.346634
4111.328125	-52.282597
4112.304688	-52.593933
4113.281250	-51.051136
4114.257812	-51.710842
4115.234375	-52.209679
4116.210938	-51.460354
4117.187500	-52.314770
4118.164062	-52.032597
4119.140625	-52.698929
4120.117188	-51.591976
4121.093750	-50.989586
4122.070312	-51.284508
4123.046875	-51.891277
4124.023438	-52.092701
4125.000000	-52.785885
4125.976562	-51.917652
4126.953125	-52.645096
4127.929688	-52.628410
4128.906250	-51.751553
4129.882812	-51.025612
4130.859375	-51.803391
4131.835938	-50.928501
4132.812500	-51.486324
4133.789062	-52.987167
4134.765625	-51.189739
4135.742188	-51.486202
4136.718750	-52.368855
4137.695312	-52.410393
4138.671875	-52.285378
4139.648438	-51.473736
4140.625000	-51.281506
4141.601562	-50.776363
4142.578125	-51.349648
4143.554688	-52.189030
4144.531250	-52.160912
4145.507812	-52.696602
4146.484375	-53.047619
4147.460938	-51.245556
4148.437500	-52.242146
4149.414062	-51.694115
4150.390625	-51.755211
4151.367188	-51.997253
4152.343750	-52.287411
4153.320312	-52.002522
4154.296875	-52.882793
4155.273438	-51.564892
4156.250000	-51.885014
4157.226562	-52.012650
4158.203125	-51.278240
4159.179688	-51.880249
4160.156250	-50.892845
4161.132812	-53.074165
4162.109375	-51.790440
4163.085938	-51.299316
4164.062500	-50.650337
4165.039062	-52.167171
4166.015625	-52.068081
4166.992188	-53.073856
4167.968750	-51.461220
4168.945312	-50.865437
4169.921875	-51.270584
4170.898438	-51.422337
4171.875000	-51.683987
4172.851562	-52.252644
4173.828125	-51.777641
4174.804688	-53.082905
4175.781250	-51.792507
4176.757812	-52.269604
4177.734375	-51.707970
4178.710938	-50.021317
4179.687500	-51.924576
4180.664062	-51.935059
4181.640625	-52.694088
4182.617188	-51.506130
4183.593750	-51.834919
4184.570312	-50.977467
4185.546875	-51.528931
4186.523438	-52.055500
4187.500000	-51.146973
4188.476562	-50.587017
4189.453125	-52.909576
4190.429688	-52.571430
4191.406250	-50.378529
4192.382812	-51.493046
4193.359375	-51.812843
4194.335938	-52.274956
4195.312500	-50.592083
4196.289062	-50.645554
4197.265625	-52.022530
4198.242188	-51.832535
4199.218750	-50.974064
4200.195312	-51.462517
4201.171875	-51.570721
4202.148438	-50.921658
4203.125000	-51.450886
4204.101562	-51.955254
4205.078125	-52.175034
4206.054688	-52.462551
4207.031250	-51.876961
4208.007812	-51.464279
4208.984375	-51.571529
4209.960938	-49.775238
4210.937500	-51.252586
4211.914062	-51.826103
4212.890625	-51.514339
4213.867188	-52.225334
4214.843750	-51.627522
4215.820312	-52.885235
4216.796875	-51.481277
4217.773438	-52.318035
4218.750000	-52.839581
4219.726562	-51.869888
4220.703125	-52.348408
4221.679688	-51.506653
4222.656250	-51.127426
4223.632812	-50.438786
4224.609375	-50.640892
4225.585938	-51.605930
4226.562500	-51.433651
4227.539062	-51.545368
4228.515625	-51.953674
4229.492188	-51.558315
4230.468750	-52.332066
4231.445312	-52.932167
4232.421875	-51.165482
4233.398438	-51.848267
4234.375000	-51.360188
4235.351562	-52.900776
4236.328125	-52.300823
4237.304688	-51.303009
4238.281250	-53.085350
4239.257812	-52.972977
4240.234375	-51.671257
4241.210938	-53.169323
4242.187500	-52.059231
4243.164062	-51.626953
4244.140625	-52.945854
4245.117188	-51.761772
4246.093750	-51.485790
4247.070312	-51.011566
4248.046875	-52.142857
4249.023438	-50.845062
4250.000000	-51.587929
4250.976562	-50.916168
4251.953125	-51.567215
4252.929688	-49.602867
4253.906250	-52.699013
4254.882812	-51.161751
4255.859375	-51.848499
4256.835938	-49.994350
4257.812500	-50.852085
4258.789062	-52.689754
4259.765625	-51.806103
4260.742188	-51.305176
4261.718750	-51.782162
4262.695312	-52.580002
4263.671875	-51.793983
4264.648438	-51.367046
4265.625000	-50.630962
4266.601562	-51.542118
4267.578125	-52.424728
4268.554688	-51.809528
4269.531250	-53.122913
4270.507812	-51.901360
4271.484375	-51.597935
4272.460938	-53.515236
4273.437500	-50.892605
4274.414062	-50.379791
4275.390625	-51.836903
4276.367188	-51.762070
4277.343750	-52.553463
4278.320312	-51.865417
4279.296875	-51.532803
4280.273438	-50.747150
4281.250000	-50.147034
4282.226562	-51.203552
4283.203125	-51.279629
4284.179688	-52.189812
4285.156250	-52.940681
4286.132812	-52.753300
4287.109375	-50.529503
4288.085938	-52.107880
4289.062500	-51.913490
4290.039062	-52.179745
4291.015625	-52.177132
4291.992188	-51.359196
4292.968750	-51.714146
4293.945312	-51.584034
4294.921875	-51.904064
4295.898438	-52.003418
4296.875000	-50.699566
4297.851562	-51.530319
4298.828125	-51.736897
4299.804688	-51.950588
4300.781250	-51.416084
4301.757812	-52.087574
4302.734375	-51.136120
4303.710938	-52.262070
4304.687500	-52.538723
4305.664062	-51.167545
4306.640625	-52.595852
4307.617188	-51.094048
4308.593750	-52.137180
4309.570312	-52.731915
4310.546875	-51.827511
4311.523438	-53.011150
4312.500000	-50.710617
4313.476562	-52.062504
4314.453125	-51.772610
4315.429688	-51.877583
4316.406250	-51.296165
4317.382812	-50.785671
4318.359375	-51.397968
4319.335938	-50.969509
4320.312500	-52.228588
4321.289062	-51.061382
4322.265625	-52.255505
4323.242188	-52.063904
4324.218750	-51.987675
4325.195312	-52.337906
4326.171875	-51.845604
4327.148438	-52.008057
4328.125000	-51.830204
4329.101562	-50.697636
4330.078125	-50.404491
4331.054688	-50.902241
4332.031250	-50.551842
4333.007812	-51.425175
4333.984375	-51.516285
4334.960938	-52.509369
4335.937500	-53.409878
4336.914062	-53.582561
4337.890625	-52.694927
4338.867188	-52.920120
4339.843750	-51.350792
4340.820312	-51.147987
4341.796875	-51.776234
4342.773438	-52.763592
4343.750000	-51.309822
4344.726562	-50.928951
4345.703125	-51.445171
4346.679688	-51.913105
4347.656250	-52.201218
4348.632812	-50.950527
4349.609375	-51.606953
4350.585938	-51.870975
4351.562500	-51.255501
4352.539062	-51.392124
4353.515625	-51.365276
4354.492188	-51.475201
4355.468750	-51.639221
4356.445312	-51.151039
4357.421875	-52.365124
4358.398438	-51.576511
4359.375000	-51.000061
4360.351562	-51.016750
4361.328125	-51.605881
4362.304688	-52.244911
4363.281250	-51.954998
4364.257812	-52.410427
4365.234375	-51.766068
4366.210938	-51.778599
4367.187500	-51.808086
4368.164062	-51.603737
4369.140625	-51.566570
4370.117188	-50.380810
4371.093750	-51.469013
4372.070312	-52.444557
4373.046875	-51.945652
4374.023438	-53.121967
4375.000000	-52.330994
4375.976562	-50.672802
4376.953125	-51.931416
4377.929688	-51.294456
4378.906250	-51.333595
4379.882812	-50.749352
4380.859375	-51.696590
4381.835938	-51.826458
4382.812500	-52.730072
4383.789062	-51.556164
4384.765625	-52.192093
4385.742188	-51.402527
4386.718750	-51.563332
4387.695312	-50.390667
4388.671875	-53.394726
4389.648438	-51.545116
4390.625000	-51.912682
4391.601562	-51.576836
4392.578125	-52.346569
4393.554688	-51.117870
4394.531250	-51.677113
4395.507812	-52.376457
4396.484375	-52.339249
4397.460938	-51.788399
4398.437500	-51.087559
4399.414062	-50.932011
4400.390625	-51.402958
4401.367188	-49.771938
4402.343750	-52.210297
4403.320312	-52.354866
4404.296875	-51.662487
4405.273438	-52.784397
4406.250000	-51.697403
4407.226562	-51.260632
4408.203125	-50.769318
4409.179688	-51.087292
4410.156250	-51.904381
4411.132812	-51.334801
4412.109375	-53.388180
4413.085938	-51.266857
4414.062500	-50.748646
4415.039062	-50.862206
4416.015625	-52.134769
4416.992188	-51.859028
4417.968750	-50.835155
4418.945312	-50.248093
4419.921875	-52.910496
4420.898438	-52.175732
4421.875000	-53.077705
4422.851562	-50.858276
4423.828125	-51.848423
4424.804688	-51.769150
4425.781250	-52.948048
4426.757812	-52.463623
4427.734375	-52.687595
4428.710938	-51.566139
4429.687500	-51.225945
4430.664062	-52.536034
4431.640625	-51.200310
4432.617188	-51.854282
4433.593750	-50.280796
4434.570312	-51.499546
4435.546875	-52.167332
4436.523438	-51.502399
4437.500000	-52.102299
4438.476562	-52.614639
4439.453125	-51.453453
4440.429688	-52.112068
4441.406250	-53.353115
4442.382812	-51.070297
4443.359375	-51.243900
4444.335938	-51.838520
4445.312500	-51.545383
4446.289062	-51.366951
4447.265625	-52.309208
4448.242188	-51.828991
4449.218750	-52.094006
4450.195312	-50.379177
4451.171875	-51.656666
4452.148438	-51.695404
4453.125000	-51.636360
4454.101562	-51.954365
4455.078125	-51.998966
4456.054688	-53.579891
4457.031250	-51.175018
4458.007812	-51.724571
4458.984375	-51.376820
4459.960938	-50.843742
4460.937500	-51.665890
4461.914062	-51.267326
4462.890625	-52.028328
4463.867188	-52.331699
4464.843750	-51.176105
4465.820312	-52.207237
4466.796875	-51.770721
4467.773438	-52.074684
4468.750000	-51.436752
4469.726562	-51.428753
4470.703125	-51.945087
4471.679688	-52.023361
4472.656250	-51.289684
4473.632812	-52.147301
4474.609375	-52.944813
4475.585938	-52.163811
4476.562500	-52.381512
4477.539062	-51.582832
4478.515625	-51.197071
4479.492188	-51.994186
4480.468750	-51.652126
4481.445312	-52.219414
4482.421875	-52.022476
4483.398438	-51.914967
4484.375000	-51.646584
4485.351562	-51.050640
4486.328125	-52.675236
4487.304688	-51.611980
4488.281250	-51.359394
4489.257812	-52.512531
4490.234375	-51.780392
4491.210938	-51.960190
4492.187500	-52.673878
4493.164062	-51.567371
4494.140625	-50.981354
4495.117188	-50.112106
4496.093750	-51.880615
4497.070312	-52.049541
4498.046875	-51.487206
4499.023438	-52.336948
4500.000000	-51.792107
4500.976562	-52.308220
4501.953125	-51.708843
4502.929688	-51.320084
4503.906250	-50.964268
4504.882812	-50.490925
4505.859375	-52.191597
4506.835938	-53.188416
4507.812500	-50.540607
4508.789062	-50.499256
4509.765625	-51.254814
4510.742188	-51.271000
4511.718750	-51.520809
4512.695312	-51.760841
4513.671875	-50.170654
4514.648438	-52.284466
4515.625000	-52.387905
4516.601562	-51.702679
4517.578125	-51.140549
4518.554688	-52.192463
4519.531250	-50.506622
4520.507812	-52.298664
4521.484375	-52.496914
4522.460938	-51.701763
4523.437500	-51.546642
4524.414062	-51.594402
4525.390625	-51.584518
4526.367188	-52.565971
4527.343750	-51.593941
4528.320312	-51.558655
4529.296875	-53.450665
4530.273438	-52.182770
4531.250000	-52.827118
4532.226562	-51.114819
4533.203125	-52.493896
4534.179688	-51.581169
4535.156250	-51.234619
4536.132812	-50.784168
4537.109375	-52.096119
4538.085938	-51.983158
4539.062500	-52.240608
4540.039062	-51.252308
4541.015625	-50.486961
4541.992188	-51.693367
4542.968750	-51.009087
4543.945312	-50.817913
4544.921875	-50.719070
4545.898438	-52.494980
4546.875000	-52.377052
4547.851562	-52.632713
4548.828125	-52.090847
4549.804688	-52.008469
4550.781250	-51.108910
4551.757812	-51.161724
4552.734375	-52.381649
4553.710938	-51.337017
4554.687500	-52.814758
4555.664062	-51.998409
4556.640625	-52.974052
4557.617188	-51.708733
4558.593750	-50.793392
4559.570312	-50.710999
4560.546875	-51.198257
4561.523438	-51.839783
4562.500000	-51.010952
4563.476562	-50.516178
4564.453125	-52.066471
4565.429688	-52.772743
4566.406250	-50.361645
4567.382812	-52.412785
4568.359375	-53.488380
4569.335938	-51.490601
4570.312500	-51.459454
4571.289062	-51.433540
4572.265625	-51.589474
4573.242188	-51.411327
4574.218750	-51.955757
4575.195312	-51.134621
4576.171875	-52.100048
4577.148438	-50.885666
4578.125000	-52.892815
4579.101562	-52.218479
4580.078125	-52.027771
4581.054688	-52.166447
4582.031250	-52.036503
4583.007812	-53.120743
4583.984375	-51.363110
4584.960938	-51.582687
4585.937500	-52.375065
4586.914062	-52.460655
4587.890625	-51.369930
4588.867188	-52.394310
4589.843750	-50.597164
4590.820312	-50.906166
4591.796875	-51.630798
4592.773438	-51.768620
4593.750000	-50.331768
4594.726562	-51.056015
4595.703125	-52.368168
4596.679688	-53.024101
4597.656250	-51.481613
4598.632812	-51.007893
4599.609375	-51.715935
4600.585938	-52.143112
4601.562500	-51.539780
4602.539062	-52.474564
4603.515625	-51.235355
4604.492188	-51.444675
4605.468750	-52.425827
4606.445312	-51.306385
4607.421875	-51.427151
4608.398438	-51.705173
4609.375000	-51.959126
4610.351562	-52.672737
4611.328125	-50.417545
4612.304688	-49.800053
4613.281250	-52.099670
4614.257812	-52.387341
4615.234375	-51.796131
4616.210938	-51.181332
4617.187500	-52.539093
4618.164062	-52.507038
4619.140625	-52.658539
4620.117188	-52.299976
4621.093750	-51.307671
4622.070312	-53.045666
4623.046875	-51.676334
4624.023438	-51.771851
4625.000000	-50.870453
4625.976562	-52.454590
4626.953125	-51.371716
4627.929688	-51.404922
4628.906250	-52.331844
4629.882812	-51.558815
4630.859375	-51.107613
4631.835938	-52.011547
4632.812500	-51.573711
4633.789062	-51.491184
4634.765625	-50.580845
4635.742188	-51.534576
4636.718750	-51.424351
4637.695312	-51.830341
4638.671875	-52.489880
4639.648438	-51.597416
4640.625000	-51.576126
4641.601562	-50.916363
4642.578125	-51.925758
4643.554688	-52.350704
4644.531250	-51.407127
4645.507812	-51.499870
4646.484375	-50.891327
4647.460938	-51.272518
4648.437500	-51.190464
4649.414062	-50.691456
4650.390625	-51.249641
4651.367188	-52.393230
4652.343750	-50.482998
4653.320312	-51.975006
4654.296875	-52.332050
4655.273438	-51.917110
4656.250000	-51.775906
4657.226562	-51.277359
4658.203125	-51.685673
4659.179688	-51.570305
4660.156250	-52.581913
4661.132812	-52.185848
4662.109375	-51.048889
4663.085938	-51.914314
4664.062500	-52.557308
4665.039062	-51.468338
4666.015625	-50.562614
4666.992188	-51.121841
4667.968750	-51.462402
4668.945312	-52.028336
4669.921875	-51.336437
4670.898438	-51.695942
4671.875000	-51.892853
4672.851562	-51.716919
4673.828125	-51.214317
4674.804688	-50.873421
4675.781250	-51.434959
4676.757812	-51.653236
4677.734375	-52.794571
4678.710938	-51.897141
4679.687500	-52.721195
4680.664062	-51.995918
4681.640625	-51.593227
4682.617188	-53.188911
4683.593750	-51.679779
4684.570312	-50.912766
4685.546875	-52.148079
4686.523438	-50.892639
4687.500000	-51.548100
4688.476562	-51.221291
4689.453125	-51.849697
4690.429688	-51.540592
4691.406250	-52.007027
4692.382812	-51.068871
4693.359375	-50.932213
4694.335938	-51.386490
4695.312500	-52.379642
4696.289062	-52.274689
4697.265625	-53.243858
4698.242188	-52.114006
4699.218750	-50.586742
4700.195312	-52.100655
4701.171875	-52.369850
4702.148438	-51.558849
4703.125000	-51.245068
4704.101562	-51.445827
4705.078125	-53.167881
4706.054688	-52.475090
4707.031250	-51.726776
4708.007812	-51.885033
4708.984375	-52.664394
4709.960938	-51.982906
4710.937500	-52.027790
4711.914062	-52.049015
4712.890625	-53.196850
4713.867188	-52.045887
4714.843750	-50.999256
4715.820312	-52.251556
4716.796875	-51.621971
4717.773438	-51.333652
4718.750000	-51.835819
4719.726562	-52.452049
4720.703125	-52.581974
4721.679688	-51.962154
4722.656250	-51.248852
4723.632812	-51.118958
4724.609375	-51.621231
4725.585938	-52.584179
4726.562500	-52.632484
4727.539062	-51.226391
4728.515625	-51.426079
4729.492188	-51.860950
4730.468750	-50.839470
4731.445312	-51.243237
4732.421875	-51.722137
4733.398438	-51.531784
4734.375000	-50.798714
4735.351562	-52.423103
4736.328125	-50.329029
4737.304688	-51.275188
4738.281250	-52.882751
4739.257812	-51.919140
4740.234375	-51.587055
4741.210938	-50.249168
4742.187500	-50.361378
4743.164062	-51.077801
4744.140625	-52.156387
4745.117188	-52.538681
4746.093750	-50.625214
4747.070312	-52.903225
4748.046875	-52.147949
4749.023438	-52.271950
4750.000000	-51.040874
4750.976562	-52.621960
4751.953125	-51.840275
4752.929688	-50.879734
4753.906250	-51.427402
4754.882812	-51.395088
4755.859375	-51.368916
4756.835938	-51.666706
4757.812500	-51.559803
4758.789062	-52.184319
4759.765625	-50.341171
4760.742188	-50.596157
4761.718750	-51.339996
4762.695312	-50.261772
4763.671875	-50.296562
4764.648438	-52.309967
4765.625000	-51.427876
4766.601562	-52.340763
4767.578125	-51.742462
4768.554688	-52.270206
4769.531250	-52.401699
4770.507812	-51.155136
4771.484375	-53.563747
4772.460938	-51.661667
4773.437500	-51.776562
4774.414062	-51.744122
4775.390625	-53.159363
4776.367188	-51.251350
4777.343750	-51.081543
4778.320312	-51.040062
4779.296875	-51.131763
4780.273438	-50.429520
4781.250000	-51.797516
4782.226562	-52.248611
4783.203125	-52.298649
4784.179688	-51.727352
4785.156250	-50.906994
4786.132812	-52.446476
4787.109375	-51.192959
4788.085938	-52.249737
4789.062500	-51.339691
4790.039062	-52.848911
4791.015625	-51.317825
4791.992188	-52.084049
4792.968750	-52.214424
4793.945312	-51.212948
4794.921875	-51.688316
4795.898438	-51.868759
4796.875000	-52.952515
4797.851562	-51.373425
4798.828125	-50.990639
4799.804688	-52.690636
4800.781250	-52.296196
4801.757812	-51.979488
4802.734375	-51.858303
4803.710938	-50.413673
4804.687500	-51.873260
4805.664062	-52.794533
4806.640625	-51.756844
4807.617188	-51.212429
4808.593750	-51.423809
4809.570312	-50.781380
4810.546875	-51.541725
4811.523438	-52.108559
4812.500000	-51.728058
4813.476562	-51.153015
4814.453125	-51.055466
4815.429688	-51.084427
4816.406250	-51.671421
4817.382812	-51.756248
4818.359375	-52.801151
4819.335938	-51.580124
4820.312500	-50.651421
4821.289062	-52.162235
4822.265625	-52.277359
4823.242188	-50.567120
4824.218750	-52.038040
4825.195312	-52.777279
4826.171875	-52.312397
4827.148438	-52.228687
4828.125000	-52.287010
4829.101562	-51.364048
4830.078125	-51.406857
4831.054688	-51.518356
4832.031250	-52.669708
4833.007812	-53.273399
4833.984375	-51.947102
4834.960938	-52.547619
4835.937500	-50.874966
4836.914062	-51.684357
4837.890625	-51.238209
4838.867188	-52.059929
4839.843750	-51.803307
4840.820312	-51.613564
4841.796875	-51.881325
4842.773438	-52.322102
4843.750000	-51.802387
4844.726562	-51.378849
4845.703125	-50.824223
4846.679688	-51.143719
4847.656250	-51.275887
4848.632812	-52.667316
4849.609375	-51.802101
4850.585938	-51.352329
4851.562500	-51.192711
4852.539062	-51.079525
4853.515625	-50.810417
4854.492188	-51.141132
4855.468750	-51.374588
4856.445312	-50.894318
4857.421875	-50.857937
4858.398438	-50.307152
4859.375000	-51.624298
4860.351562	-50.732658
4861.328125	-50.638454
4862.304688	-50.607368
4863.281250	-51.521988
4864.257812	-51.338928
4865.234375	-51.245876
4866.210938	-52.372200
4867.187500	-51.039215
4868.164062	-51.065983
4869.140625	-52.612122
4870.117188	-51.393291
4871.093750	-50.398819
4872.070312	-51.957581
4873.046875	-51.513397
4874.023438	-51.678490
4875.000000	-52.840256
4875.976562	-52.199738
4876.953125	-50.875423
4877.929688	-52.724342
4878.906250	-50.764675
4879.882812	-51.835213
4880.859375	-52.362797
4881.835938	-51.073421
4882.812500	-51.804024
4883.789062	-52.509892
4884.765625	-53.943630
4885.742188	-51.551933
4886.718750	-50.667473
4887.695312	-53.076939
4888.671875	-50.979107
4889.648438	-51.748760
4890.625000	-52.231586
4891.601562	-52.553230
4892.578125	-52.038765
4893.554688	-52.793209
4894.531250	-51.832336
4895.507812	-52.146851
4896.484375	-51.659367
4897.460938	-50.988750
4898.437500	-52.222782
4899.414062	-51.689213
4900.390625	-52.500896
4901.367188	-52.262062
4902.343750	-51.979511
4903.320312	-51.272591
4904.296875	-51.840588
4905.273438	-51.463364
4906.250000	-53.511909
4907.226562	-51.653484
4908.203125	-52.847721
4909.179688	-51.984177
4910.156250	-51.138889
4911.132812	-52.752243
4912.109375	-52.161629
4913.085938	-52.824417
4914.062500	-51.301689
4915.039062	-52.600208
4916.015625	-50.898243
4916.992188	-51.219704
4917.968750	-50.876312
4918.945312	-51.266716
4919.921875	-51.402081
4920.898438	-50.949894
4921.875000	-51.487183
4922.851562	-51.630791
4923.828125	-50.105328
4924.804688	-51.796875
4925.781250	-52.735195
4926.757812	-52.361336
4927.734375	-51.357166
4928.710938	-51.202774
4929.687500	-52.057629
4930.664062	-51.773514
4931.640625	-50.904182
4932.617188	-51.539173
4933.593750	-50.815784
4934.570312	-51.402695
4935.546875	-51.220863
4936.523438	-50.520168
4937.500000	-52.208580
4938.476562	-51.722080
4939.453125	-51.598000
4940.429688	-51.797241
4941.406250	-52.788742
4942.382812	-51.090626
4943.359375	-50.619717
4944.335938	-52.668205
4945.312500	-51.234985
4946.289062	-53.199455
4947.265625	-51.436398
4948.242188	-51.906765
4949.218750	-51.835278
4950.195312	-51.408089
4951.171875	-52.960087
4952.148438	-51.847649
4953.125000	-51.574879
4954.101562	-51.975883
4955.078125	-52.219654
4956.054688	-52.072304
4957.031250	-51.650787
4958.007812	-52.148659
4958.984375	-51.494717
4959.960938	-51.579712
4960.937500	-50.640293
4961.914062	-51.763355
4962.890625	-52.461666
4963.867188	-52.010502
4964.843750	-51.603691
4965.820312	-52.170959
4966.796875	-52.279026
4967.773438	-51.529778
4968.750000	-51.894932
4969.726562	-51.417679
4970.703125	-51.351791
4971.679688	-50.524574
4972.656250	-50.646099
4973.632812	-50.813225
4974.609375	-51.307362
4975.585938	-51.115887
4976.562500	-51.476006
4977.539062	-52.538990
4978.515625	-51.993118
4979.492188	-52.052525
4980.468750	-51.461773
4981.445312	-52.947197
4982.421875	-52.714737
4983.398438	-51.781742
4984.375000	-52.332397
4985.351562	-51.577034
4986.328125	-51.486382
4987.304688	-51.288582
4988.281250	-51.223576
4989.257812	-51.657589
4990.234375	-51.839520
4991.210938	-51.178219
4992.187500	-51.077858
4993.164062	-51.116905
4994.140625	-52.306656
4995.117188	-52.499107
4996.093750	-52.122871
4997.070312	-50.988720
4998.046875	-51.288349
4999.023438	-51.217537
5000.000000	-52.162659
5000.976562	-52.739307
5001.953125	-52.725418
5002.929688	-51.452488
5003.906250	-51.514847
5004.882812	-51.069351
5005.859375	-52.173756
5006.835938	-51.900436
5007.812500	-51.500320
5008.789062	-52.090420
5009.765625	-50.765930
5010.742188	-50.773823
5011.718750	-52.078964
5012.695312	-52.038090
5013.671875	-51.609459
5014.648438	-51.929169
5015.625000	-52.200233
5016.601562	-50.557659
5017.578125	-51.173515
5018.554688	-52.054947
5019.531250	-52.407047
5020.507812	-52.983082
5021.484375	-51.352962
5022.460938	-51.357456
5023.437500	-52.145340
5024.414062	-51.617035
5025.390625	-52.052803
5026.367188	-52.322311
5027.343750	-52.711788
5028.320312	-52.276146
5029.296875	-51.692230
5030.273438	-51.593380
5031.250000	-51.097324
5032.226562	-52.217907
5033.203125	-51.973404
5034.179688	-50.768234
5035.156250	-50.782803
5036.132812	-51.791061
5037.109375	-52.629478
5038.085938	-51.738441
5039.062500	-51.959011
5040.039062	-51.451172
5041.015625	-52.072166
5041.992188	-51.722168
5042.968750	-52.478622
5043.945312	-51.616959
5044.921875	-52.616043
5045.898438	-51.358746
5046.875000	-52.511326
5047.851562	-51.462692
5048.828125	-52.088272
5049.804688	-51.242058
5050.781250	-51.268150
5051.757812	-52.231873
5052.734375	-52.467903
5053.710938	-52.043152
5054.687500	-52.376335
5055.664062	-51.162975
5056.640625	-51.203831
5057.617188	-52.249935
5058.593750	-51.298580
5059.570312	-52.629818
5060.546875	-52.526966
5061.523438	-51.400604
5062.500000	-53.183109
5063.476562	-52.062466
5064.453125	-51.537865
5065.429688	-50.666393
5066.406250	-51.602867
5067.382812	-51.467251
5068.359375	-51.266529
5069.335938	-52.593494
5070.312500	-52.677692
5071.289062	-51.981041
5072.265625	-51.386768
5073.242188	-51.585075
5074.218750	-51.165802
5075.195312	-52.313736
5076.171875	-51.179478
5077.148438	-51.758495
5078.125000	-51.864231
5079.101562	-50.991879
5080.078125	-52.221268
5081.054688	-51.052742
5082.031250	-51.590816
5083.007812	-52.075726
5083.984375	-50.711723
5084.960938	-52.415932
5085.937500	-51.311222
5086.914062	-51.058186
5087.890625	-52.396793
5088.867188	-52.341763
5089.843750	-52.338890
5090.820312	-52.052837
5091.796875	-51.097752
5092.773438	-51.181358
5093.750000	-52.402283
5094.726562	-51.643211
5095.703125	-50.824055
5096.679688	-51.779198
5097.656250	-50.043121
5098.632812	-50.980782
5099.609375	-52.411469
5100.585938	-52.102161
5101.562500	-51.670212
5102.539062	-52.847885
5103.515625	-52.798016
5104.492188	-51.483795
5105.468750	-51.821621
5106.445312	-53.669273
5107.421875	-53.943058
5108.398438	-51.131008
5109.375000	-51.500820
5110.351562	-51.536564
5111.328125	-51.531891
5112.304688	-51.969784
5113.281250	-51.850513
5114.257812	-52.242298
5115.234375	-52.079979
5116.210938	-51.679462
5117.187500	-51.123295
5118.164062	-50.900681
5119.140625	-51.348915
5120.117188	-52.281639
5121.093750	-51.857231
5122.070312	-49.914047
5123.046875	-50.782764
5124.023438	-51.068657
5125.000000	-52.152546
5125.976562	-51.791809
5126.953125	-51.167530
5127.929688	-51.637257
5128.906250	-52.319416
5129.882812	-51.692917
5130.859375	-52.374119
5131.835938	-51.041164
5132.812500	-51.516865
5133.789062	-53.476433
5134.765625	-51.962955
5135.742188	-51.190632
5136.718750	-50.498497
5137.695312	-51.601219
5138.671875	-52.021194
5139.648438	-50.928345
5140.625000	-53.222626
5141.601562	-51.527889
5142.578125	-50.812565
5143.554688	-52.261406
5144.531250	-52.402168
5145.507812	-51.923420
5146.484375	-52.039124
5147.460938	-52.129093
5148.437500	-52.099751
5149.414062	-51.903187
5150.390625	-51.722408
5151.367188	-53.363823
5152.343750	-51.341885
5153.320312	-51.611061
5154.296875	-52.870583
5155.273438	-52.321323
5156.250000	-52.329502
5157.226562	-52.834743
5158.203125	-52.687492
5159.179688	-50.663673
5160.156250	-52.145687
5161.132812	-51.510616
5162.109375	-51.477291
5163.085938	-52.019272
5164.062500	-51.542915
5165.039062	-52.128590
5166.015625	-51.875599
5166.992188	-52.269924
5167.968750	-52.254017
5168.945312	-51.726048
5169.921875	-50.402470
5170.898438	-51.385590
5171.875000	-51.268749
5172.851562	-52.165138
5173.828125	-51.939964
5174.804688	-51.894058
5175.781250	-50.273190
5176.757812	-51.189137
5177.734375	-52.163536
5178.710938	-51.701321
5179.687500	-51.952549
5180.664062	-51.322865
5181.640625	-51.362129
5182.617188	-51.394703
5183.593750	-50.777088
5184.570312	-51.781090
5185.546875	-51.741367
5186.523438	-52.791225
5187.500000	-52.198215
5188.476562	-51.919601
5189.453125	-52.026054
5190.429688	-52.212505
5191.406250	-52.547916
5192.382812	-52.707989
5193.359375	-51.917137
5194.335938	-51.826263
5195.312500	-52.250027
5196.289062	-51.462147
5197.265625	-51.872963
5198.242188	-52.319416
5199.218750	-52.556919
5200.195312	-51.643974
5201.171875	-51.666904
5202.148438	-51.116776
5203.125000	-52.058319
5204.101562	-52.517174
5205.078125	-52.270065
5206.054688	-52.394505
5207.031250	-51.373726
5208.007812	-52.723301
5208.984375	-51.847050
5209.960938	-51.324947
5210.937500	-50.625999
5211.914062	-50.399529
5212.890625	-51.413887
5213.867188	-52.088905
5214.843750	-51.377506
5215.820312	-51.850147
5216.796875	-52.241398
5217.773438	-52.985172
5218.750000	-52.913273
5219.726562	-51.907600
5220.703125	-51.850346
5221.679688	-51.001129
5222.656250	-52.683289
5223.632812	-53.100307
5224.609375	-51.540009
5225.585938	-51.708141
5226.562500	-52.695995
5227.539062	-51.607471
5228.515625	-51.854523
5229.492188	-51.479530
5230.468750	-51.075108
5231.445312	-52.772453
5232.421875	-52.000187
5233.398438	-51.494072
5234.375000	-52.177711
5235.351562	-51.961929
5236.328125	-51.437580
5237.304688	-52.246414
5238.281250	-51.931980
5239.257812	-52.255157
5240.234375	-51.924789
5241.210938	-51.844772
5242.187500	-52.790764
5243.164062	-51.543339
5244.140625	-50.690941
5245.117188	-52.442684
5246.093750	-51.615936
5247.070312	-51.984993
5248.046875	-51.814053
5249.023438	-51.385605
5250.000000	-51.276875
5250.976562	-51.352760
5251.953125	-51.960033
5252.929688	-51.182827
5253.906250	-50.538788
5254.882812	-51.889595
5255.859375	-51.003654
5256.835938	-51.529819
5257.812500	-50.623714
5258.789062	-50.677021
5259.765625	-51.695747
5260.742188	-53.009041
5261.718750	-51.181324
5262.695312	-51.541622
5263.671875	-50.793930
5264.648438	-51.447651
5265.625000	-51.952736
5266.601562	-50.897575
5267.578125	-51.525883
5268.554688	-52.531643
5269.531250	-52.946133
5270.507812	-52.216122
5271.484375	-51.328945
5272.460938	-52.361526
5273.437500	-51.061245
5274.414062	-51.777554
5275.390625	-51.831738
5276.367188	-53.004261
5277.343750	-51.769543
5278.320312	-51.044308
5279.296875	-50.606892
5280.273438	-51.237736
5281.250000	-52.127613
5282.226562	-51.049366
5283.203125	-52.637753
5284.179688	-52.063370
5285.156250	-52.156303
5286.132812	-52.702404
5287.109375	-51.859211
5288.085938	-51.012627
5289.062500	-51.038177
5290.039062	-51.796608
5291.015625	-52.029274
5291.992188	-52.117458
5292.968750	-50.667763
5293.945312	-51.266151
5294.921875	-52.736519
5295.898438	-53.003757
5296.875000	-52.673244
5297.851562	-51.024151
5298.828125	-51.320969
5299.804688	-51.944714
5300.781250	-52.498367
5301.757812	-51.164028
5302.734375	-50.529957
5303.710938	-51.886383
5304.687500	-50.806675
5305.664062	-51.647137
5306.640625	-51.521397
5307.617188	-53.268822
5308.593750	-51.948704
5309.570312	-50.832146
5310.546875	-51.188389
5311.523438	-51.370480
5312.500000	-51.560654
5313.476562	-51.785900
5314.453125	-51.828438
5315.429688	-52.552837
5316.406250	-51.762714
5317.382812	-52.497826
5318.359375	-52.118305
5319.335938	-51.883766
5320.312500	-50.917278
5321.289062	-51.271183
5322.265625	-52.891880
5323.242188	-52.118862
5324.218750	-53.297001
5325.195312	-51.434986
5326.171875	-52.166576
5327.148438	-52.483810
5328.125000	-53.423119
5329.101562	-51.757671
5330.078125	-50.773396
5331.054688	-51.164341
5332.031250	-52.502312
5333.007812	-52.550720
5333.984375	-52.553074
5334.960938	-52.490620
5335.937500	-50.864086
5336.914062	-51.568298
5337.890625	-51.621315
5338.867188	-52.517776
5339.843750	-51.547836
5340.820312	-51.434719
5341.796875	-52.890099
5342.773438	-52.728603
5343.750000	-51.612885
5344.726562	-52.062798
5345.703125	-51.614445
5346.679688	-52.671406
5347.656250	-51.488926
5348.632812	-52.287243
5349.609375	-51.798824
5350.585938	-51.959270
5351.562500	-51.993271
5352.539062	-51.319824
5353.515625	-51.010948
5354.492188	-50.325001
5355.468750	-51.550537
5356.445312	-51.711880
5357.421875	-52.735016
5358.398438	-52.456017
5359.375000	-53.373798
5360.351562	-51.746140
5361.328125	-51.493248
5362.304688	-51.461639
5363.281250	-51.294785
5364.257812	-51.821495
5365.234375	-51.894081
5366.210938	-51.680557
5367.187500	-52.309334
5368.164062	-54.179249
5369.140625	-50.904022
5370.117188	-51.180984
5371.093750	-51.882751
5372.070312	-51.112602
5373.046875	-50.747280
5374.023438	-51.302063
5375.000000	-52.328026
5375.976562	-51.639256
5376.953125	-51.746437
5377.929688	-51.369534
5378.906250	-51.183720
5379.882812	-51.660854
5380.859375	-51.062412
5381.835938	-52.742496
5382.812500	-50.229408
5383.789062	-52.614441
5384.765625	-52.089596
5385.742188	-51.321312
5386.718750	-50.338848
5387.695312	-51.225151
5388.671875	-51.783157
5389.648438	-52.085358
5390.625000	-51.479603
5391.601562	-51.468208
5392.578125	-52.964878
5393.554688	-51.755905
5394.531250	-50.595444
5395.507812	-51.794197
5396.484375	-51.079487
5397.460938	-52.001907
5398.437500	-53.560616
5399.414062	-51.609253
5400.390625	-52.669895
5401.367188	-50.811069
5402.343750	-50.796356
5403.320312	-51.234528
5404.296875	-52.738415
5405.273438	-53.073399
5406.250000	-51.422585
5407.226562	-51.399918
5408.203125	-51.497841
5409.179688	-51.814465
5410.156250	-51.973492
5411.132812	-51.139236
5412.109375	-51.507202
5413.085938	-52.121677
5414.062500	-51.697422
5415.039062	-51.784725
5416.015625	-52.283901
5416.992188	-51.120777
5417.968750	-49.976357
5418.945312	-51.870628
5419.921875	-50.677387
5420.898438	-51.691181
5421.875000	-50.587879
5422.851562	-51.125885
5423.828125	-52.612663
5424.804688	-50.881828
5425.781250	-52.733402
5426.757812	-51.497993
5427.734375	-51.889713
5428.710938	-52.096416
5429.687500	-52.846882
5430.664062	-52.347176
5431.640625	-51.741043
5432.617188	-51.641151
5433.593750	-52.526985
5434.570312	-51.930355
5435.546875	-51.392696
5436.523438	-52.235672
5437.500000	-52.053459
5438.476562	-52.293118
5439.453125	-51.116257
5440.429688	-52.070972
5441.406250	-51.766670
5442.382812	-51.968548
5443.359375	-51.076813
5444.335938	-51.562492
5445.312500	-51.071442
5446.289062	-51.841980
5447.265625	-51.031029
5448.242188	-50.948296
5449.218750	-53.475254
5450.195312	-52.007809
5451.171875	-52.283596
5452.148438	-50.093010
5453.125000	-51.779160
5454.101562	-52.892891
5455.078125	-51.248093
5456.054688	-51.542973
5457.031250	-52.531944
5458.007812	-51.879398
5458.984375	-51.936829
5459.960938	-52.597359
5460.937500	-52.651810
5461.914062	-52.351021
5462.890625	-52.807514
5463.867188	-51.875889
5464.843750	-51.601929
5465.820312	-50.905457
5466.796875	-51.672394
5467.773438	-52.351463
5468.750000	-51.816586
5469.726562	-53.578747
5470.703125	-52.478924
5471.679688	-52.268902
5472.656250	-50.277721
5473.632812	-53.082756
5474.609375	-50.321514
5475.585938	-52.431839
5476.562500	-51.524548
5477.539062	-51.244194
5478.515625	-50.245426
5479.492188	-50.689903
5480.468750	-52.257004
5481.445312	-52.173336
5482.421875	-51.487106
5483.398438	-50.481796
5484.375000	-51.146919
5485.351562	-52.154453
5486.328125	-52.116699
5487.304688	-50.847939
5488.281250	-51.347889
5489.257812	-50.529408
5490.234375	-51.671478
5491.210938	-51.039928
5492.187500	-50.778996
5493.164062	-51.596352
5494.140625	-51.867680
5495.117188	-50.536613
5496.093750	-50.579891
5497.070312	-51.243046
5498.046875	-51.662979
5499.023438	-51.835499
5500.000000	-51.814465
5500.976562	-52.290924
5501.953125	-51.442940
5502.929688	-52.401184
5503.906250	-52.777824
5504.882812	-50.871361
5505.859375	-50.612854
5506.835938	-51.025764
5507.812500	-52.296406
5508.789062	-50.881504
5509.765625	-51.624859
5510.742188	-51.483112
5511.718750	-52.378391
5512.695312	-51.340786
5513.671875	-51.779350
5514.648438	-52.303047
5515.625000	-52.144817
5516.601562	-51.458790
5517.578125	-51.065086
5518.554688	-52.668274
5519.531250	-52.292763
5520.507812	-51.266811
5521.484375	-51.945217
5522.460938	-52.243313
5523.437500	-51.466816
5524.414062	-51.168076
5525.390625	-50.327366
5526.367188	-51.360950
5527.343750	-51.421650
5528.320312	-52.846939
5529.296875	-50.740993
5530.273438	-51.792835
5531.250000	-51.219780
5532.226562	-50.732422
5533.203125	-51.898724
5534.179688	-51.851631
5535.156250	-49.689526
5536.132812	-51.062164
5537.109375	-51.433033
5538.085938	-50.757912
5539.062500	-49.947495
5540.039062	-50.948586
5541.015625	-51.812893
5541.992188	-51.652924
5542.968750	-50.956043
5543.945312	-50.066395
5544.921875	-51.754200
5545.898438	-51.350277
5546.875000	-51.788101
5547.851562	-52.259132
5548.828125	-52.680191
5549.804688	-53.048565
5550.781250	-51.403500
5551.757812	-51.638336
5552.734375	-50.803123
5553.710938	-52.702164
5554.687500	-53.128910
5555.664062	-51.559330
5556.640625	-52.956642
5557.617188	-52.597656
5558.593750	-52.406284
5559.570312	-52.223221
5560.546875	-52.398975
5561.523438	-51.452343
5562.500000	-51.922180
5563.476562	-50.293682
5564.453125	-51.428383
5565.429688	-53.059963
5566.406250	-51.823475
5567.382812	-51.688934
5568.359375	-51.476944
5569.335938	-51.467300
5570.312500	-52.132175
5571.289062	-51.607025
5572.265625	-51.641216
5573.242188	-50.466743
5574.218750	-51.548939
5575.195312	-50.589569
5576.171875	-51.225697
5577.148438	-50.410160
5578.125000	-51.994671
5579.101562	-51.737301
5580.078125	-51.638451
5581.054688	-51.809696
5582.031250	-51.827454
5583.007812	-51.804413
5583.984375	-51.591652
5584.960938	-51.662403
5585.937500	-52.116043
5586.914062	-51.754299
5587.890625	-50.858383
5588.867188	-51.769211
5589.843750	-52.277401
5590.820312	-51.604374
5591.796875	-51.795357
5592.773438	-52.509735
5593.750000	-52.877937
5594.726562	-51.593327
5595.703125	-51.993706
5596.679688	-51.202778
5597.656250	-50.659431
5598.632812	-50.886158
5599.609375	-51.815556
5600.585938	-52.245441
5601.562500	-52.014606
5602.539062	-51.837597
5603.515625	-52.558022
5604.492188	-51.367184
5605.468750	-51.082699
5606.445312	-52.256477
5607.421875	-51.869659
5608.398438	-52.109737
5609.375000	-51.901291
5610.351562	-52.309734
5611.328125	-51.497940
5612.304688	-51.982353
5613.281250	-51.762020
5614.257812	-52.935966
5615.234375	-51.989922
5616.210938	-52.098309
5617.187500	-51.564671
5618.164062	-52.163765
5619.140625	-52.306293
5620.117188	-52.613514
5621.093750	-50.315388
5622.070312	-51.646980
5623.046875	-51.726334
5624.023438	-50.447594
5625.000000	-50.705215
5625.976562	-50.697117
5626.953125	-51.439365
5627.929688	-52.074718
5628.906250	-52.071465
5629.882812	-52.688927
5630.859375	-52.188141
5631.835938	-51.771404
5632.812500	-51.631088
5633.789062	-50.754864
5634.765625	-52.651535
5635.742188	-51.974781
5636.718750	-51.366505
5637.695312	-53.044506
5638.671875	-52.336704
5639.648438	-52.236076
5640.625000	-51.730255
5641.601562	-51.186047
5642.578125	-51.491688
5643.554688	-51.824547
5644.531250	-51.796360
5645.507812	-51.168003
5646.484375	-52.718060
5647.460938	-51.523560
5648.437500	-51.589199
5649.414062	-51.814838
5650.390625	-52.148663
5651.367188	-53.046516
5652.343750	-53.181152
5653.320312	-51.795784
5654.296875	-52.206924
5655.273438	-52.641747
5656.250000	-52.553837
5657.226562	-52.012897
5658.203125	-51.788364
5659.179688	-52.377876
5660.156250	-50.535339
5661.132812	-51.373878
5662.109375	-51.020432
5663.085938	-51.100479
5664.062500	-52.808983
5665.039062	-52.577732
5666.015625	-51.800003
5666.992188	-51.407368
5667.968750	-51.650429
5668.945312	-52.332783
5669.921875	-51.788364
5670.898438	-51.225613
5671.875000	-50.265747
5672.851562	-51.571804
5673.828125	-51.450417
5674.804688	-51.441975
5675.781250	-51.874279
5676.757812	-52.096813
5677.734375	-51.867817
5678.710938	-50.947197
5679.687500	-51.709435
5680.664062	-50.330051
5681.640625	-51.160198
5682.617188	-52.472908
5683.593750	-52.247738
5684.570312	-51.732719
5685.546875	-51.903458
5686.523438	-52.845295
5687.500000	-51.482277
5688.476562	-51.912865
5689.453125	-51.282604
5690.429688	-52.378483
5691.406250	-52.206379
5692.382812	-50.883701
5693.359375	-52.096836
5694.335938	-51.112293
5695.312500	-51.676571
5696.289062	-51.923172
5697.265625	-51.456032
5698.242188	-51.515453
5699.218750	-50.914837
5700.195312	-51.056297
5701.171875	-52.799927
5702.148438	-51.026237
5703.125000	-52.692844
5704.101562	-53.213802
5705.078125	-52.389099
5706.054688	-51.660702
5707.031250	-51.122799
5708.007812	-51.944248
5708.984375	-52.915268
5709.960938	-52.119114
5710.937500	-51.629395
5711.914062	-52.181602
5712.890625	-52.161476
5713.867188	-50.891705
5714.843750	-52.111500
5715.820312	-50.548695
5716.796875	-53.332203
5717.773438	-51.161224
5718.750000	-50.784416
5719.726562	-52.232155
5720.703125	-51.284714
5721.679688	-51.488281
5722.656250	-51.228966
5723.632812	-50.577991
5724.609375	-51.027630
5725.585938	-51.808887
5726.562500	-51.069618
5727.539062	-51.273140
5728.515625	-50.979416
5729.492188	-52.341965
5730.468750	-51.470039
5731.445312	-50.625957
5732.421875	-51.256157
5733.398438	-51.089409
5734.375000	-51.015751
5735.351562	-51.200661
5736.328125	-52.494957
5737.304688	-51.115284
5738.281250	-51.119019
5739.257812	-50.434071
5740.234375	-51.369064
5741.210938	-52.016762
5742.187500	-50.974007
5743.164062	-51.912437
5744.140625	-51.555218
5745.117188	-51.311481
5746.093750	-51.497456
5747.070312	-51.955643
5748.046875	-51.901802
5749.023438	-51.003399
5750.000000	-51.242496
5750.976562	-51.838013
5751.953125	-51.879364
5752.929688	-51.258373
5753.906250	-50.465607
5754.882812	-52.435902
5755.859375	-52.051636
5756.835938	-52.290092
5757.812500	-52.658924
5758.789062	-51.563725
5759.765625	-52.215832
5760.742188	-51.477444
5761.718750	-51.311192
5762.695312	-52.371494
5763.671875	-50.601444
5764.648438	-52.850014
5765.625000	-51.887733
5766.601562	-51.574162
5767.578125	-53.183487
5768.554688	-51.768295
5769.531250	-52.830959
5770.507812	-51.289188
5771.484375	-50.920467
5772.460938	-51.001259
5773.437500	-52.528900
5774.414062	-52.104187
5775.390625	-50.695339
5776.367188	-51.650936
5777.343750	-52.422100
5778.320312	-52.340588
5779.296875	-52.795181
5780.273438	-52.284916
5781.250000	-51.383240
5782.226562	-52.309471
5783.203125	-50.701275
5784.179688	-51.596992
5785.156250	-50.907181
5786.132812	-51.699089
5787.109375	-52.500797
5788.085938	-52.390091
5789.062500	-52.285656
5790.039062	-52.008816
5791.015625	-53.811516
5791.992188	-52.942337
5792.968750	-52.738117
5793.945312	-51.960117
5794.921875	-52.112415
5795.898438	-52.195747
5796.875000	-51.720856
5797.851562	-51.836540
5798.828125	-52.255692
5799.804688	-51.878399
5800.781250	-53.304234
5801.757812	-51.233124
5802.734375	-51.420467
5803.710938	-51.837418
5804.687500	-50.676846
5805.664062	-51.423576
5806.640625	-51.598103
5807.617188	-51.913361
5808.593750	-52.591137
5809.570312	-51.675060
5810.546875	-51.979553
5811.523438	-52.417568
5812.500000	-52.317966
5813.476562	-50.887608
5814.453125	-51.593559
5815.429688	-52.268169
5816.406250	-51.890976
5817.382812	-52.203800
5818.359375	-50.616478
5819.335938	-51.083679
5820.312500	-50.887230
5821.289062	-51.722797
5822.265625	-51.673996
5823.242188	-51.028393
5824.218750	-51.953953
5825.195312	-51.654091
5826.171875	-51.759129
5827.148438	-52.312328
5828.125000	-51.573719
5829.101562	-52.614471
5830.078125	-51.894329
5831.054688	-51.342361
5832.031250	-52.004398
5833.007812	-50.491028
5833.984375	-50.851940
5834.960938	-52.252151
5835.937500	-52.275417
5836.914062	-51.587292
5837.890625	-52.521084
5838.867188	-51.005119
5839.843750	-50.677315
5840.820312	-51.052689
5841.796875	-52.099243
5842.773438	-51.630096
5843.750000	-51.765553
5844.726562	-52.653118
5845.703125	-52.151882
5846.679688	-51.683239
5847.656250	-51.349777
5848.632812	-52.429016
5849.609375	-52.501560
5850.585938	-51.371021
5851.562500	-52.348583
5852.539062	-52.048382
5853.515625	-52.444332
5854.492188	-53.092026
5855.468750	-52.372505
5856.445312	-50.768517
5857.421875	-53.467705
5858.398438	-51.336590
5859.375000	-51.898037
5860.351562	-51.858570
5861.328125	-51.781319
5862.304688	-51.673698
5863.281250	-51.096123
5864.257812	-52.400528
5865.234375	-52.149033
5866.210938	-51.377430
5867.187500	-50.677319
5868.164062	-51.350716
5869.140625	-51.149818
5870.117188	-51.020065
5871.093750	-51.660568
5872.070312	-51.559532
5873.046875	-52.277424
5874.023438	-51.125488
5875.000000	-51.113346
5875.976562	-50.488804
5876.953125	-51.092716
5877.929688	-52.051010
5878.906250	-51.797451
5879.882812	-52.026413
5880.859375	-51.876453
5881.835938	-51.075294
5882.812500	-50.851204
5883.789062	-51.801762
5884.765625	-52.422108
5885.742188	-51.954239
5886.718750	-53.062035
5887.695312	-51.158817
5888.671875	-52.882568
5889.648438	-51.405083
5890.625000	-52.236088
5891.601562	-51.071972
5892.578125	-50.740093
5893.554688	-51.046997
5894.531250	-51.788723
5895.507812	-51.778831
5896.484375	-50.259075
5897.460938	-51.882183
5898.437500	-50.567993
5899.414062	-50.809093
5900.390625	-51.947788
5901.367188	-51.214512
5902.343750	-52.459183
5903.320312	-51.508251
5904.296875	-51.345932
5905.273438	-51.917400
5906.250000	-52.377228
5907.226562	-51.414604
5908.203125	-52.494949
5909.179688	-52.020794
5910.156250	-50.833778
5911.132812	-51.042728
5912.109375	-52.381470
5913.085938	-51.302574
5914.062500	-52.653175
5915.039062	-52.760632
5916.015625	-50.792656
5916.992188	-52.015339
5917.968750	-52.044563
5918.945312	-52.176292
5919.921875	-51.950790
5920.898438	-52.014816
5921.875000	-51.354294
5922.851562	-51.319439
5923.828125	-50.972984
5924.804688	-51.893196
5925.781250	-51.530838
5926.757812	-49.902893
5927.734375	-51.117817
5928.710938	-51.843540
5929.687500	-51.302231
5930.664062	-51.076733
5931.640625	-50.747562
5932.617188	-51.194653
5933.593750	-51.732777
5934.570312	-50.126915
5935.546875	-50.799362
5936.523438	-51.404594
5937.500000	-51.672092
5938.476562	-52.316692
5939.453125	-51.403553
5940.429688	-51.227108
5941.406250	-52.167736
5942.382812	-52.372440
5943.359375	-51.782509
5944.335938	-50.275482
5945.312500	-52.950356
5946.289062	-52.729168
5947.265625	-51.185596
5948.242188	-51.372498
5949.218750	-53.042629
5950.195312	-51.343052
5951.171875	-51.851261
5952.148438	-52.416855
5953.125000	-51.660831
5954.101562	-51.032333
5955.078125	-51.122337
5956.054688	-50.497860
5957.031250	-51.629055
5958.007812	-51.940098
5958.984375	-51.548443
5959.960938	-51.428619
5960.937500	-50.986275
5961.914062	-51.181332
5962.890625	-52.735489
5963.867188	-51.142017
5964.843750	-51.331219
5965.820312	-52.184345
5966.796875	-51.505272
5967.773438	-52.289814
5968.750000	-52.550644
5969.726562	-49.772316
5970.703125	-51.345074
5971.679688	-52.277302
5972.656250	-51.967705
5973.632812	-51.298325
5974.609375	-51.002712
5975.585938	-51.670822
5976.562500	-52.490555
5977.539062	-51.121872
5978.515625	-52.301594
5979.492188	-53.486599
5980.468750	-52.476215
5981.445312	-51.178837
5982.421875	-52.087120
5983.398438	-51.709141
5984.375000	-50.591396
5985.351562	-51.417500
5986.328125	-50.627647
5987.304688	-51.667965
5988.281250	-52.006546
5989.257812	-52.851681
5990.234375	-51.396049
5991.210938	-51.959366
5992.187500	-51.534752
5993.164062	-51.674423
5994.140625	-51.060802
5995.117188	-50.855484
5996.093750	-52.126190
5997.070312	-52.514633
5998.046875	-52.396412
5999.023438	-52.727135
6000.000000	-51.637585
6000.976562	-51.417645
6001.953125	-52.963619
6002.929688	-50.934742
6003.906250	-51.866253
6004.882812	-51.411491
6005.859375	-51.202404
6006.835938	-52.779903
6007.812500	-51.799282
6008.789062	-52.012100
6009.765625	-51.386868
6010.742188	-51.431854
6011.718750	-52.464031
6012.695312	-51.515701
6013.671875	-51.603794
6014.648438	-52.529480
6015.625000	-52.048996
6016.601562	-51.178371
6017.578125	-52.335590
6018.554688	-52.184261
6019.531250	-52.584171
6020.507812	-53.212265
6021.484375	-52.619129
6022.460938	-52.430653
6023.437500	-52.068600
6024.414062	-53.242023
6025.390625	-51.600883
6026.367188	-51.526005
6027.343750	-51.790085
6028.320312	-52.703449
6029.296875	-53.126095
6030.273438	-51.510754
6031.250000	-51.380566
6032.226562	-51.278625
6033.203125	-52.857624
6034.179688	-51.842674
6035.156250	-51.513584
6036.132812	-50.844067
6037.109375	-51.501770
6038.085938	-51.712353
6039.062500	-52.149601
6040.039062	-52.244949
6041.015625	-51.450150
6041.992188	-51.759274
6042.968750	-52.684467
6043.945312	-51.511024
6044.921875	-52.472443
6045.898438	-51.882160
6046.875000	-51.628529
6047.851562	-51.204548
6048.828125	-52.741932
6049.804688	-51.800861
6050.781250	-52.303127
6051.757812	-51.890339
6052.734375	-52.978928
6053.710938	-51.969723
6054.687500	-51.014057
6055.664062	-52.957420
6056.640625	-52.647274
6057.617188	-52.240780
6058.593750	-51.770676
6059.570312	-51.147449
6060.546875	-50.400398
6061.523438	-50.819637
6062.500000	-52.628937
6063.476562	-51.564381
6064.453125	-52.346161
6065.429688	-51.739788
6066.406250	-51.524258
6067.382812	-51.987610
6068.359375	-51.456188
6069.335938	-52.544769
6070.312500	-52.645573
6071.289062	-52.111156
6072.265625	-51.252880
6073.242188	-51.531879
6074.218750	-50.990982
6075.195312	-51.939030
6076.171875	-51.823627
6077.148438	-51.341312
6078.125000	-51.076336
6079.101562	-51.178272
6080.078125	-51.530617
6081.054688	-51.182606
6082.031250	-52.652878
6083.007812	-51.969463
6083.984375	-52.094288
6084.960938	-50.884113
6085.937500	-53.281799
6086.914062	-50.918575
6087.890625	-51.699978
6088.867188	-51.209236
6089.843750	-51.123852
6090.820312	-52.076042
6091.796875	-52.590004
6092.773438	-52.002640
6093.750000	-50.874268
6094.726562	-52.311108
6095.703125	-51.913277
6096.679688	-52.439491
6097.656250	-52.495560
6098.632812	-51.614029
6099.609375	-52.482662
6100.585938	-51.481926
6101.562500	-52.605732
6102.539062	-51.633377
6103.515625	-51.646622
6104.492188	-51.823456
6105.468750	-52.012096
6106.445312	-51.307915
6107.421875	-51.859013
6108.398438	-50.375317
6109.375000	-50.741383
6110.351562	-50.932789
6111.328125	-50.688164
6112.304688	-51.491989
6113.281250	-51.594433
6114.257812	-53.026119
6115.234375	-51.448040
6116.210938	-52.219952
6117.187500	-53.074383
6118.164062	-53.108639
6119.140625	-51.399059
6120.117188	-51.715397
6121.093750	-51.112755
6122.070312	-51.657406
6123.046875	-51.662189
6124.023438	-51.882851
6125.000000	-51.732754
6125.976562	-52.259888
6126.953125	-51.202129
6127.929688	-52.334694
6128.906250	-51.190952
6129.882812	-50.905636
6130.859375	-51.770943
6131.835938	-52.578880
6132.812500	-50.888988
6133.789062	-51.755707
6134.765625	-51.643383
6135.742188	-51.053230
6136.718750	-52.469387
6137.695312	-52.330643
6138.671875	-52.114815
6139.648438	-50.839424
6140.625000	-51.367882
6141.601562	-52.287117
6142.578125	-52.110405
6143.554688	-51.848774
6144.531250	-50.867088
6145.507812	-51.617439
6146.484375	-52.250286
6147.460938	-52.235714
6148.437500	-52.571358
6149.414062	-53.702248
6150.390625	-51.400726
6151.367188	-51.472267
6152.343750	-51.637356
6153.320312	-50.632191
6154.296875	-51.799107
6155.273438	-52.422470
6156.250000	-52.127190
6157.226562	-50.572197
6158.203125	-50.920166
6159.179688	-52.306644
6160.156250	-51.404743
6161.132812	-51.814804
6162.109375	-51.302338
6163.085938	-52.560551
6164.062500	-51.469639
6165.039062	-52.936138
6166.015625	-51.477760
6166.992188	-52.001625
6167.968750	-51.555832
6168.945312	-51.259567
6169.921875	-51.177505
6170.898438	-51.300140
6171.875000	-51.056026
6172.851562	-52.032711
6173.828125	-51.689590
6174.804688	-51.258816
6175.781250	-51.555542
6176.757812	-52.762070
6177.734375	-52.217186
6178.710938	-52.705734
6179.687500	-52.877857
6180.664062	-51.278114
6181.640625	-52.498405
6182.617188	-51.974827
6183.593750	-50.769260
6184.570312	-51.088436
6185.546875	-49.862713
6186.523438	-52.231197
6187.500000	-51.024040
6188.476562	-51.113350
6189.453125	-53.591072
6190.429688	-51.983570
6191.406250	-51.473850
6192.382812	-52.695644
6193.359375	-51.775993
6194.335938	-52.850479
6195.312500	-51.680183
6196.289062	-51.743679
6197.265625	-52.432934
6198.242188	-52.128387
6199.218750	-52.675770
6200.195312	-51.992710
6201.171875	-51.059109
6202.148438	-52.672260
6203.125000	-52.162300
6204.101562	-51.447605
6205.078125	-51.422237
6206.054688	-52.780754
6207.031250	-51.073929
6208.007812	-51.831577
6208.984375	-51.674335
6209.960938	-51.792549
6210.937500	-50.378170
6211.914062	-51.781826
6212.890625	-51.903000
6213.867188	-50.492870
6214.843750	-52.664356
6215.820312	-51.689331
6216.796875	-51.626453
6217.773438	-52.181870
6218.750000	-51.434826
6219.726562	-51.897610
6220.703125	-51.750053
6221.679688	-52.227276
6222.656250	-51.873878
6223.632812	-51.757206
6224.609375	-51.590195
6225.585938	-51.788742
6226.562500	-51.271301
6227.539062	-51.113873
6228.515625	-50.958183
6229.492188	-50.191231
6230.468750	-51.322590
6231.445312	-51.611938
6232.421875	-51.856548
6233.398438	-52.564220
6234.375000	-50.786018
6235.351562	-51.679573
6236.328125	-52.859764
6237.304688	-52.270252
6238.281250	-52.566498
6239.257812	-52.065563
6240.234375	-52.001965
6241.210938	-51.666271
6242.187500	-52.311474
6243.164062	-52.226208
6244.140625	-52.244453
6245.117188	-50.947128
6246.093750	-50.297455
6247.070312	-51.764832
6248.046875	-52.891590
6249.023438	-51.248920
6250.000000	-51.244846
6250.976562	-50.854664
6251.953125	-51.484299
6252.929688	-51.915581
6253.906250	-53.203789
6254.882812	-51.220531
6255.859375	-52.945599
6256.835938	-51.962112
6257.812500	-52.686462
6258.789062	-53.080158
6259.765625	-51.239521
6260.742188	-51.272743
6261.718750	-52.015049
6262.695312	-51.176353
6263.671875	-51.339676
6264.648438	-52.125626
6265.625000	-51.393684
6266.601562	-51.997387
6267.578125	-52.005978
6268.554688	-52.234764
6269.531250	-51.142738
6270.507812	-51.621605
6271.484375	-52.229984
6272.460938	-50.853516
6273.437500	-51.520401
6274.414062	-51.128010
6275.390625	-51.712025
6276.367188	-51.420483
6277.343750	-51.662350
6278.320312	-49.999794
6279.296875	-51.655121
6280.273438	-51.605503
6281.250000	-52.044357
6282.226562	-50.794029
6283.203125	-52.317577
6284.179688	-51.229275
6285.156250	-52.861298
6286.132812	-52.340225
6287.109375	-51.496582
6288.085938	-51.473579
6289.062500	-50.630611
6290.039062	-51.537708
6291.015625	-52.469379
6291.992188	-51.241016
6292.968750	-52.655914
6293.945312	-51.033947
6294.921875	-52.400711
6295.898438	-50.069057
6296.875000	-50.895126
6297.851562	-52.053223
6298.828125	-51.192284
6299.804688	-51.702793
6300.781250	-51.959179
6301.757812	-51.387985
6302.734375	-51.827595
6303.710938	-51.812359
6304.687500	-51.610634
6305.664062	-51.844913
6306.640625	-52.269154
6307.617188	-51.212196
6308.593750	-50.748844
6309.570312	-51.576305
6310.546875	-51.449074
6311.523438	-50.368343
6312.500000	-51.881916
6313.476562	-50.375256
6314.453125	-51.476006
6315.429688	-51.407875
6316.406250	-51.011372
6317.382812	-52.033588
6318.359375	-50.785187
6319.335938	-51.082584
6320.312500	-52.092331
6321.289062	-53.275658
6322.265625	-51.741489
6323.242188	-51.304970
6324.218750	-50.296535
6325.195312	-51.426174
6326.171875	-52.981686
6327.148438	-51.967709
6328.125000	-50.820213
6329.101562	-50.891541
6330.078125	-52.424160
6331.054688	-50.931950
6332.031250	-51.885502
6333.007812	-50.913353
6333.984375	-52.062534
6334.960938	-52.340698
6335.937500	-52.001457
6336.914062	-50.696777
6337.890625	-51.854225
6338.867188	-52.651581
6339.843750	-52.093349
6340.820312	-51.631031
6341.796875	-51.577629
6342.773438	-52.321026
6343.750000	-51.862785
6344.726562	-51.884045
6345.703125	-51.155441
6346.679688	-51.095638
6347.656250	-51.666962
6348.632812	-52.892292
6349.609375	-51.709934
6350.585938	-52.877007
6351.562500	-52.216167
6352.539062	-51.871178
6353.515625	-51.439781
6354.492188	-51.730770
6355.468750	-51.343307
6356.445312	-51.376850
6357.421875	-51.767735
6358.398438	-51.613781
6359.375000	-51.682632
6360.351562	-52.206791
6361.328125	-53.181782
6362.304688	-51.329617
6363.281250	-51.448448
6364.257812	-51.673504
6365.234375	-51.664982
6366.210938	-51.225414
6367.187500	-50.763737
6368.164062	-51.913944
6369.140625	-52.478619
6370.117188	-51.104172
6371.093750	-51.450661
6372.070312	-50.548328
6373.046875	-51.892681
6374.023438	-50.976646
6375.000000	-52.150776
6375.976562	-51.241642
6376.953125	-50.413231
6377.929688	-53.106472
6378.906250	-52.156384
6379.882812	-51.391556
6380.859375	-52.072906
6381.835938	-51.794823
6382.812500	-51.395046
6383.789062	-51.487343
6384.765625	-51.721039
6385.742188	-52.137299
6386.718750	-51.055016
6387.695312	-51.566639
6388.671875	-51.513954
6389.648438	-52.777390
6390.625000	-52.072987
6391.601562	-52.810303
6392.578125	-51.754745
6393.554688	-51.620628
6394.531250	-51.617069
6395.507812	-52.067127
6396.484375	-51.030018
6397.460938	-50.758839
6398.437500	-51.608250
6399.414062	-52.145550
6400.390625	-53.113163
6401.367188	-52.694321
6402.343750	-52.478271
6403.320312	-52.550072
6404.296875	-52.707397
6405.273438	-51.958008
6406.250000	-51.056206
6407.226562	-50.585133
6408.203125	-51.392044
6409.179688	-51.214195
6410.156250	-51.954697
6411.132812	-52.148087
6412.109375	-51.118336
6413.085938	-51.649055
6414.062500	-52.081604
6415.039062	-51.755436
6416.015625	-52.718834
6416.992188	-51.670502
6417.968750	-51.510937
6418.945312	-51.042229
6419.921875	-51.518631
6420.898438	-51.850769
6421.875000	-52.084049
6422.851562	-51.418766
6423.828125	-52.018703
6424.804688	-52.168530
6425.781250	-52.143768
6426.757812	-51.734589
6427.734375	-52.321575
6428.710938	-52.314175
6429.687500	-52.109077
6430.664062	-52.922939
6431.640625	-51.879215
6432.617188	-52.304993
6433.593750	-52.906284
6434.570312	-51.573772
6435.546875	-50.263378
6436.523438	-52.308277
6437.500000	-52.264187
6438.476562	-51.298908
6439.453125	-51.120689
6440.429688	-51.746319
6441.406250	-51.537838
6442.382812	-51.013760
6443.359375	-51.300404
6444.335938	-51.343876
6445.312500	-51.255447
6446.289062	-50.997086
6447.265625	-51.474182
6448.242188	-53.017735
6449.218750	-52.016884
6450.195312	-52.836941
6451.171875	-51.193497
6452.148438	-51.905067
6453.125000	-51.061680
6454.101562	-53.139057
6455.078125	-51.990444
6456.054688	-51.697681
6457.031250	-51.855679
6458.007812	-51.675522
6458.984375	-52.868420
6459.960938	-50.776913
6460.937500	-51.226963
6461.914062	-52.731358
6462.890625	-53.020412
6463.867188	-52.764999
6464.843750	-50.689278
6465.820312	-50.370350
6466.796875	-52.350925
6467.773438	-50.658230
6468.750000	-52.332111
6469.726562	-53.165203
6470.703125	-51.668819
6471.679688	-51.394165
6472.656250	-52.212418
6473.632812	-51.862938
6474.609375	-50.882603
6475.585938	-52.256317
6476.562500	-52.756420
6477.539062	-51.018524
6478.515625	-52.508274
6479.492188	-52.042427
6480.468750	-52.271648
6481.445312	-53.084724
6482.421875	-52.816357
6483.398438	-52.296738
6484.375000	-52.397072
6485.351562	-51.444748
6486.328125	-51.797901
6487.304688	-50.730267
6488.281250	-50.896809
6489.257812	-52.508751
6490.234375	-51.888302
6491.210938	-50.978519
6492.187500	-52.206982
6493.164062	-51.572617
6494.140625	-53.276249
6495.117188	-51.162216
6496.093750	-51.327293
6497.070312	-52.350037
6498.046875	-52.343666
6499.023438	-54.006676
6500.000000	-52.076195
6500.976562	-51.759476
6501.953125	-50.346111
6502.929688	-51.483448
6503.906250	-51.416439
6504.882812	-50.802013
6505.859375	-51.941647
6506.835938	-51.737789
6507.812500	-51.299652
6508.789062	-52.799614
6509.765625	-51.867672
6510.742188	-50.755188
6511.718750	-50.905693
6512.695312	-51.435337
6513.671875	-50.868431
6514.648438	-51.656223
6515.625000	-50.946068
6516.601562	-50.661068
6517.578125	-51.350471
6518.554688	-51.776802
6519.531250	-51.844009
6520.507812	-51.542053
6521.484375	-50.866772
6522.460938	-51.620335
6523.437500	-51.210545
6524.414062	-51.360092
6525.390625	-52.169064
6526.367188	-52.695168
6527.343750	-52.436268
6528.320312	-52.700626
6529.296875	-52.355164
6530.273438	-52.338768
6531.250000	-52.313343
6532.226562	-52.594048
6533.203125	-52.265564
6534.179688	-51.122295
6535.156250	-52.741768
6536.132812	-52.490349
6537.109375	-51.060341
6538.085938	-51.000683
6539.062500	-52.450813
6540.039062	-52.342907
6541.015625	-52.592979
6541.992188	-53.311596
6542.968750	-52.675842
6543.945312	-51.655766
6544.921875	-51.513172
6545.898438	-52.641407
6546.875000	-51.210239
6547.851562	-51.833328
6548.828125	-53.526970
6549.804688	-53.060177
6550.781250	-51.145103
6551.757812	-51.619858
6552.734375	-51.411480
6553.710938	-52.441036
6554.687500	-52.192467
6555.664062	-51.295444
6556.640625	-52.040665
6557.617188	-51.791996
6558.593750	-52.310951
6559.570312	-52.186474
6560.546875	-52.166130
6561.523438	-52.628391
6562.500000	-51.638760
6563.476562	-52.326111
6564.453125	-51.773857
6565.429688	-51.657345
6566.406250	-50.904877
6567.382812	-51.008213
6568.359375	-51.285137
6569.335938	-52.117191
6570.312500	-51.969879
6571.289062	-53.605415
6572.265625	-51.635120
6573.242188	-52.205696
6574.218750	-52.370323
6575.195312	-51.766563
6576.171875	-51.704872
6577.148438	-52.037888
6578.125000	-52.524799
6579.101562	-53.416550
6580.078125	-50.789680
6581.054688	-51.284863
6582.031250	-53.114265
6583.007812	-52.376247
6583.984375	-51.688881
6584.960938	-52.059006
6585.937500	-52.383152
6586.914062	-51.868004
6587.890625	-52.209229
6588.867188	-52.455963
6589.843750	-51.927879
6590.820312	-51.822945
6591.796875	-50.907738
6592.773438	-51.643780
6593.750000	-51.230255
6594.726562	-51.429077
6595.703125	-50.977875
6596.679688	-50.583408
6597.656250	-50.532490
6598.632812	-51.821465
6599.609375	-51.957905
6600.585938	-51.836704
6601.562500	-52.403172
6602.539062	-52.992702
6603.515625	-50.155308
6604.492188	-50.129105
6605.468750	-51.563038
6606.445312	-50.532730
6607.421875	-53.348732
6608.398438	-52.638897
6609.375000	-51.438946
6610.351562	-51.776825
6611.328125	-50.358608
6612.304688	-52.709972
6613.281250	-51.152763
6614.257812	-51.551079
6615.234375	-50.696453
6616.210938	-51.195557
6617.187500	-50.646580
6618.164062	-51.852623
6619.140625	-51.886524
6620.117188	-52.510578
6621.093750	-52.654377
6622.070312	-52.231983
6623.046875	-51.961746
6624.023438	-52.253902
6625.000000	-52.777546
6625.976562	-51.060291
6626.953125	-52.033794
6627.929688	-53.044621
6628.906250	-52.994179
6629.882812	-51.704601
6630.859375	-51.387054
6631.835938	-51.881950
6632.812500	-51.794903
6633.789062	-51.551476
6634.765625	-51.301510
6635.742188	-52.450806
6636.718750	-51.319172
6637.695312	-53.493439
6638.671875	-52.092907
6639.648438	-51.350594
6640.625000	-51.492691
6641.601562	-51.138031
6642.578125	-51.847233
6643.554688	-51.182274
6644.531250	-52.675861
6645.507812	-50.859867
6646.484375	-51.383167
6647.460938	-51.396961
6648.437500	-50.970108
6649.414062	-52.394207
6650.390625	-52.678154
6651.367188	-51.436047
6652.343750	-50.899750
6653.320312	-51.939400
6654.296875	-50.057713
6655.273438	-50.325932
6656.250000	-51.795330
6657.226562	-50.728882
6658.203125	-50.875633
6659.179688	-52.498192
6660.156250	-50.571022
6661.132812	-51.999962
6662.109375	-51.313725
6663.085938	-50.029018
6664.062500	-51.364773
6665.039062	-53.025475
6666.015625	-52.217922
6666.992188	-52.008293
6667.968750	-50.491844
6668.945312	-51.781300
6669.921875	-50.248257
6670.898438	-50.423218
6671.875000	-52.411789
6672.851562	-51.022724
6673.828125	-51.617268
6674.804688	-51.786308
6675.781250	-51.205357
6676.757812	-51.322842
6677.734375	-51.282963
6678.710938	-51.025478
6679.687500	-50.326466
6680.664062	-52.201160
6681.640625	-51.425270
6682.617188	-51.230907
6683.593750	-51.227463
6684.570312	-50.142548
6685.546875	-50.967934
6686.523438	-50.829102
6687.500000	-52.117561
6688.476562	-50.286011
6689.453125	-52.384789
6690.429688	-51.364555
6691.406250	-51.279110
6692.382812	-50.548447
6693.359375	-51.200684
6694.335938	-52.235703
6695.312500	-52.664230
6696.289062	-50.977787
6697.265625	-51.922100
6698.242188	-51.063576
6699.218750	-52.391617
6700.195312	-51.325844
6701.171875	-51.380466
6702.148438	-51.572933
6703.125000	-53.022785
6704.101562	-51.289024
6705.078125	-52.180031
6706.054688	-51.539818
6707.031250	-52.566925
6708.007812	-53.233265
6708.984375	-52.791698
6709.960938	-52.281460
6710.937500	-51.576797
6711.914062	-51.370255
6712.890625	-50.769836
6713.867188	-52.651272
6714.843750	-51.382076
6715.820312	-51.844593
6716.796875	-51.806515
6717.773438	-52.789127
6718.750000	-50.822613
6719.726562	-51.776531
6720.703125	-53.326557
6721.679688	-50.809994
6722.656250	-51.693817
6723.632812	-52.340988
6724.609375	-51.690598
6725.585938	-51.845428
6726.562500	-52.067612
6727.539062	-52.190578
6728.515625	-51.849373
6729.492188	-51.251007
6730.468750	-52.118828
6731.445312	-53.302876
6732.421875	-51.473122
6733.398438	-51.770535
6734.375000	-51.280064
6735.351562	-51.354626
6736.328125	-50.706333
6737.304688	-51.450760
6738.281250	-53.141617
6739.257812	-51.936977
6740.234375	-52.007938
6741.210938	-52.769688
6742.187500	-50.190323
6743.164062	-52.135014
6744.140625	-51.912418
6745.117188	-53.035671
6746.093750	-52.527142
6747.070312	-52.076984
6748.046875	-52.019409
6749.023438	-50.660553
6750.000000	-52.252132
6750.976562	-51.029446
6751.953125	-51.853760
6752.929688	-51.127663
6753.906250	-51.636654
6754.882812	-51.460709
6755.859375	-51.310017
6756.835938	-50.522251
6757.812500	-52.602261
6758.789062	-51.937511
6759.765625	-52.432003
6760.742188	-52.416744
6761.718750	-50.537201
6762.695312	-51.426609
6763.671875	-52.572311
6764.648438	-52.466820
6765.625000	-52.390347
6766.601562	-51.848278
6767.578125	-51.756401
6768.554688	-51.231091
6769.531250	-51.321861
6770.507812	-51.326981
6771.484375	-52.181812
6772.460938	-52.157600
6773.437500	-51.884079
6774.414062	-52.290791
6775.390625	-51.871746
6776.367188	-50.929089
6777.343750	-51.348324
6778.320312	-51.941925
6779.296875	-51.434155
6780.273438	-51.350197
6781.250000	-51.187485
6782.226562	-51.403584
6783.203125	-51.473316
6784.179688	-51.054600
6785.156250	-51.962162
6786.132812	-51.506149
6787.109375	-51.562035
6788.085938	-52.212753
6789.062500	-51.998005
6790.039062	-50.671867
6791.015625	-52.603172
6791.992188	-52.198631
6792.968750	-52.087036
6793.945312	-51.804913
6794.921875	-50.830437
6795.898438	-52.550945
6796.875000	-50.777260
6797.851562	-51.347603
6798.828125	-50.714169
6799.804688	-51.838650
6800.781250	-52.259460
6801.757812	-50.904991
6802.734375	-52.065826
6803.710938	-51.514339
6804.687500	-52.155148
6805.664062	-51.987343
6806.640625	-50.879234
6807.617188	-51.268154
6808.593750	-50.967159
6809.570312	-50.563911
6810.546875	-52.154083
6811.523438	-51.101143
6812.500000	-51.206238
6813.476562	-52.346436
6814.453125	-50.729889
6815.429688	-50.933315
6816.406250	-50.967548
6817.382812	-50.007465
6818.359375	-52.272919
6819.335938	-51.789547
6820.312500	-51.416119
6821.289062	-51.606064
6822.265625	-52.400257
6823.242188	-51.364170
6824.218750	-52.785683
6825.195312	-52.267418
6826.171875	-52.226612
6827.148438	-52.508644
6828.125000	-51.940014
6829.101562	-50.920097
6830.078125	-52.422890
6831.054688	-51.103214
6832.031250	-52.418213
6833.007812	-51.607864
6833.984375	-52.519455
6834.960938	-51.823524
6835.937500	-52.748722
6836.914062	-50.976574
6837.890625	-51.659073
6838.867188	-51.487572
6839.843750	-50.760548
6840.820312	-51.751587
6841.796875	-51.438454
6842.773438	-51.047733
6843.750000	-51.891506
6844.726562	-52.095764
6845.703125	-52.142715
6846.679688	-52.573486
6847.656250	-50.851170
6848.632812	-52.297031
6849.609375	-51.830212
6850.585938	-50.334263
6851.562500	-51.301472
6852.539062	-52.024723
6853.515625	-51.667889
6854.492188	-51.955307
6855.468750	-52.907696
6856.445312	-51.873104
6857.421875	-52.318455
6858.398438	-51.527069
6859.375000	-51.186455
6860.351562	-50.949219
6861.328125	-51.870144
6862.304688	-50.202633
6863.281250	-51.372105
6864.257812	-51.328617
6865.234375	-52.218124
6866.210938	-51.996647
6867.187500	-50.789532
6868.164062	-51.854862
6869.140625	-52.130173
6870.117188	-51.645237
6871.093750	-51.777298
6872.070312	-51.006916
6873.046875	-51.059017
6874.023438	-51.366692
6875.000000	-52.116966
6875.976562	-52.183636
6876.953125	-50.105808
6877.929688	-50.598190
6878.906250	-52.671478
6879.882812	-52.370277
6880.859375	-51.154690
6881.835938	-52.332108
6882.812500	-52.035099
6883.789062	-52.540726
6884.765625	-53.632050
6885.742188	-52.384338
6886.718750	-51.386375
6887.695312	-50.970917
6888.671875	-51.107452
6889.648438	-51.821453
6890.625000	-50.760906
6891.601562	-51.745567
6892.578125	-50.824821
6893.554688	-50.894852
6894.531250	-51.057663
6895.507812	-51.847511
6896.484375	-51.951679
6897.460938	-51.906380
6898.437500	-51.228809
6899.414062	-52.862740
6900.390625	-51.013897
6901.367188	-51.645130
6902.343750	-50.900654
6903.320312	-50.107727
6904.296875	-51.787521
6905.273438	-51.694981
6906.250000	-52.440018
6907.226562	-51.949375
6908.203125	-51.458847
6909.179688	-51.438499
6910.156250	-52.554684
6911.132812	-51.080746
6912.109375	-50.737919
6913.085938	-51.226788
6914.062500	-50.884293
6915.039062	-52.550610
6916.015625	-52.803028
6916.992188	-52.843437
6917.968750	-51.054855
6918.945312	-52.422581
6919.921875	-52.338223
6920.898438	-51.851234
6921.875000	-52.932629
6922.851562	-52.371441
6923.828125	-52.628799
6924.804688	-51.769707
6925.781250	-50.813107
6926.757812	-52.511196
6927.734375	-53.672997
6928.710938	-51.433327
6929.687500	-50.957626
6930.664062	-50.941998
6931.640625	-51.370064
6932.617188	-51.181046
6933.593750	-53.113636
6934.570312	-52.347008
6935.546875	-51.660515
6936.523438	-53.332336
6937.500000	-53.097881
6938.476562	-51.300106
6939.453125	-53.463207
6940.429688	-52.217003
6941.406250	-51.012554
6942.382812	-51.012318
6943.359375	-53.180584
6944.335938	-51.573151
6945.312500	-50.984631
6946.289062	-52.236305
6947.265625	-50.368305
6948.242188	-50.901619
6949.218750	-51.785587
6950.195312	-51.741787
6951.171875	-52.758659
6952.148438	-52.758255
6953.125000	-52.427059
6954.101562	-53.205505
6955.078125	-52.642551
6956.054688	-51.709812
6957.031250	-51.794937
6958.007812	-51.658436
6958.984375	-50.312286
6959.960938	-52.655373
6960.937500	-53.655933
6961.914062	-52.349495
6962.890625	-50.565540
6963.867188	-50.464619
6964.843750	-51.916454
6965.820312	-51.051533
6966.796875	-52.127674
6967.773438	-52.295082
6968.750000	-53.172581
6969.726562	-52.535275
6970.703125	-50.895374
6971.679688	-52.004856
6972.656250	-51.307610
6973.632812	-52.778816
6974.609375	-52.087364
6975.585938	-51.682171
6976.562500	-51.271637
6977.539062	-50.593803
6978.515625	-53.112839
6979.492188	-51.785603
6980.468750	-52.255985
6981.445312	-51.866138
6982.421875	-51.178158
6983.398438	-51.068096
6984.375000	-51.120152
6985.351562	-51.629757
6986.328125	-51.969078
6987.304688	-51.626286
6988.281250	-51.236153
6989.257812	-50.710640
6990.234375	-51.545368
6991.210938	-49.626369
6992.187500	-50.864689
6993.164062	-51.356823
6994.140625	-50.810909
6995.117188	-50.647480
6996.093750	-50.764317
6997.070312	-51.896183
6998.046875	-53.066433
6999.023438	-52.210178
7000.000000	-51.556015
7000.976562	-51.771732
7001.953125	-52.482754
7002.929688	-52.130909
7003.906250	-51.519062
7004.882812	-51.608353
7005.859375	-51.753891
7006.835938	-51.690758
7007.812500	-51.074223
7008.789062	-51.586723
7009.765625	-52.741138
7010.742188	-51.159439
7011.718750	-51.335602
7012.695312	-52.654255
7013.671875	-51.817692
7014.648438	-52.567223
7015.625000	-51.647888
7016.601562	-52.199207
7017.578125	-50.647167
7018.554688	-51.790752
7019.531250	-51.656322
7020.507812	-51.868893
7021.484375	-51.536545
7022.460938	-51.569706
7023.437500	-52.842461
7024.414062	-52.099731
7025.390625	-52.326862
7026.367188	-53.085815
7027.343750	-51.962662
7028.320312	-52.189438
7029.296875	-50.938168
7030.273438	-51.937660
7031.250000	-52.502430
7032.226562	-51.946384
7033.203125	-51.393795
7034.179688	-50.646664
7035.156250	-51.363003
7036.132812	-52.303032
7037.109375	-51.549751
7038.085938	-51.627743
7039.062500	-51.627270
7040.039062	-50.648640
7041.015625	-51.339020
7041.992188	-50.650436
7042.968750	-52.789593
7043.945312	-52.910774
7044.921875	-51.812233
7045.898438	-52.917515
7046.875000	-52.838982
7047.851562	-51.860870
7048.828125	-52.479198
7049.804688	-52.085152
7050.781250	-52.650940
7051.757812	-52.760490
7052.734375	-52.607151
7053.710938	-50.480377
7054.687500	-52.004757
7055.664062	-51.447960
7056.640625	-51.221626
7057.617188	-50.505962
7058.593750	-52.054993
7059.570312	-52.796391
7060.546875	-52.492306
7061.523438	-51.953609
7062.500000	-51.430470
7063.476562	-51.054710
7064.453125	-52.175133
7065.429688	-52.111828
7066.406250	-52.066345
7067.382812	-50.929127
7068.359375	-52.091316
7069.335938	-52.658535
7070.312500	-51.435738
7071.289062	-50.452118
7072.265625	-52.435207
7073.242188	-52.152134
7074.218750	-51.018013
7075.195312	-51.562462
7076.171875	-52.087395
7077.148438	-52.446453
7078.125000	-50.536510
7079.101562	-52.053951
7080.078125	-50.732033
7081.054688	-52.876797
7082.031250	-52.955647
7083.007812	-53.612854
7083.984375	-52.754036
7084.960938	-52.354973
7085.937500	-51.482941
7086.914062	-51.646755
7087.890625	-51.240803
7088.867188	-51.480484
7089.843750	-51.817001
7090.820312	-52.512611
7091.796875	-51.442162
7092.773438	-52.089024
7093.750000	-51.911343
7094.726562	-50.770813
7095.703125	-51.856644
7096.679688	-51.212139
7097.656250	-50.920414
7098.632812	-50.688808
7099.609375	-51.160931
7100.585938	-52.002007
7101.562500	-51.950909
7102.539062	-51.394726
7103.515625	-51.803299
7104.492188	-52.221119
7105.468750	-52.293327
7106.445312	-51.608685
7107.421875	-51.867741
7108.398438	-50.986752
7109.375000	-51.584480
7110.351562	-51.217991
7111.328125	-53.002968
7112.304688	-50.679329
7113.281250	-51.615780
7114.257812	-51.174599
7115.234375	-51.583500
7116.210938	-51.437218
7117.187500	-51.576847
7118.164062	-52.136620
7119.140625	-51.233849
7120.117188	-50.916260
7121.093750	-51.341980
7122.070312	-51.947449
7123.046875	-51.218288
7124.023438	-51.161224
7125.000000	-51.222694
7125.976562	-51.415867
7126.953125	-51.624069
7127.929688	-51.456959
7128.906250	-52.717213
7129.882812	-51.669006
7130.859375	-52.143448
7131.835938	-52.000355
7132.812500	-52.320271
7133.789062	-51.557961
7134.765625	-51.390640
7135.742188	-51.567524
7136.718750	-50.433376
7137.695312	-52.470772
7138.671875	-52.041588
7139.648438	-51.712189
7140.625000	-54.082424
7141.601562	-51.152927
7142.578125	-51.998878
7143.554688	-52.477440
7144.531250	-52.985222
7145.507812	-52.683903
7146.484375	-52.327763
7147.460938	-52.343113
7148.437500	-51.719444
7149.414062	-50.816868
7150.390625	-51.931263
7151.367188	-52.319710
7152.343750	-52.294109
7153.320312	-51.249775
7154.296875	-52.433117
7155.273438	-51.075089
7156.250000	-52.162273
7157.226562	-52.504154
7158.203125	-51.849628
7159.179688	-52.025208
7160.156250	-51.351044
7161.132812	-50.610455
7162.109375	-53.028786
7163.085938	-52.994511
7164.062500	-51.950130
7165.039062	-52.027550
7166.015625	-52.241783
7166.992188	-52.997166
7167.968750	-52.125050
7168.945312	-51.204208
7169.921875	-52.080994
7170.898438	-52.056881
7171.875000	-52.498146
7172.851562	-52.120007
7173.828125	-52.510338
7174.804688	-51.798286
7175.781250	-51.337318
7176.757812	-50.814960
7177.734375	-51.670174
7178.710938	-51.979717
7179.687500	-51.114979
7180.664062	-51.333374
7181.640625	-52.044075
7182.617188	-52.158489
7183.593750	-53.353046
7184.570312	-50.992527
7185.546875	-51.521057
7186.523438	-51.811966
7187.500000	-52.124832
7188.476562	-52.734726
7189.453125	-52.160976
7190.429688	-51.023758
7191.406250	-51.392193
7192.382812	-50.252716
7193.359375	-50.403988
7194.335938	-53.107822
7195.312500	-52.075645
7196.289062	-50.489769
7197.265625	-50.645779
7198.242188	-51.297821
7199.218750	-51.748493
7200.195312	-52.072739
7201.171875	-51.487415
7202.148438	-51.921280
7203.125000	-50.992073
7204.101562	-51.995026
7205.078125	-51.970638
7206.054688	-51.502628
7207.031250	-52.128536
7208.007812	-52.008984
7208.984375	-51.967628
7209.960938	-51.521828
7210.937500	-50.824394
7211.914062	-51.254982
7212.890625	-50.581978
7213.867188	-51.655888
7214.843750	-51.754395
7215.820312	-51.425385
7216.796875	-51.951740
7217.773438	-51.435364
7218.750000	-52.795326
7219.726562	-51.971584
7220.703125	-53.129002
7221.679688	-51.604740
7222.656250	-51.789978
7223.632812	-52.297829
7224.609375	-53.106297
7225.585938	-51.589684
7226.562500	-52.462326
7227.539062	-53.283249
7228.515625	-52.432865
7229.492188	-52.123989
7230.468750	-51.683666
7231.445312	-52.146194
7232.421875	-52.062378
7233.398438	-52.842628
7234.375000	-52.416016
7235.351562	-51.101292
7236.328125	-50.574509
7237.304688	-52.227142
7238.281250	-53.192757
7239.257812	-51.896564
7240.234375	-51.412624
7241.210938	-50.095478
7242.187500	-51.055775
7243.164062	-50.295185
7244.140625	-51.757050
7245.117188	-52.774590
7246.093750	-50.750530
7247.070312	-51.437885
7248.046875	-50.849590
7249.023438	-51.078449
7250.000000	-52.932766
7250.976562	-52.611790
7251.953125	-52.047459
7252.929688	-52.118919
7253.906250	-51.753780
7254.882812	-50.796654
7255.859375	-51.412319
7256.835938	-51.728939
7257.812500	-50.778172
7258.789062	-51.785191
7259.765625	-51.167110
7260.742188	-51.367424
7261.718750	-50.553066
7262.695312	-51.406326
7263.671875	-52.536114
7264.648438	-53.189732
7265.625000	-51.895576
7266.601562	-51.058781
7267.578125	-52.081226
7268.554688	-51.657166
7269.531250	-51.048668
7270.507812	-52.305984
7271.484375	-50.949722
7272.460938	-51.895020
7273.437500	-50.674877
7274.414062	-51.370796
7275.390625	-51.925362
7276.367188	-51.692822
7277.343750	-52.570591
7278.320312	-51.351051
7279.296875	-52.423782
7280.273438	-52.696129
7281.250000	-51.986469
7282.226562	-52.021618
7283.203125	-51.319031
7284.179688	-51.581467
7285.156250	-51.389488
7286.132812	-52.828285
7287.109375	-51.439701
7288.085938	-51.429256
7289.062500	-50.545818
7290.039062	-51.827194
7291.015625	-50.996872
7291.992188	-51.650089
7292.968750	-51.600754
7293.945312	-51.410473
7294.921875	-50.279892
7295.898438	-51.086819
7296.875000	-51.515259
7297.851562	-50.527885
7298.828125	-52.093609
7299.804688	-51.360714
7300.781250	-51.927082
7301.757812	-52.230457
7302.734375	-51.708038
7303.710938	-51.762314
7304.687500	-52.025242
7305.664062	-50.767719
7306.640625	-52.159164
7307.617188	-51.705463
7308.593750	-51.920914
7309.570312	-50.828514
7310.546875	-51.728210
7311.523438	-52.444393
7312.500000	-52.885506
7313.476562	-53.155426
7314.453125	-52.924580
7315.429688	-51.053772
7316.406250	-51.057922
7317.382812	-51.440357
7318.359375	-52.180569
7319.335938	-51.806133
7320.312500	-52.020618
7321.289062	-52.027241
7322.265625	-53.263607
7323.242188	-51.420967
7324.218750	-51.822800
7325.195312	-51.920826
7326.171875	-51.403465
7327.148438	-51.524910
7328.125000	-51.812138
7329.101562	-51.672749
7330.078125	-52.236244
7331.054688	-51.790989
7332.031250	-51.094185
7333.007812	-51.211037
7333.984375	-51.487236
7334.960938	-51.286545
7335.937500	-52.418972
7336.914062	-52.256386
7337.890625	-51.849598
7338.867188	-52.849674
7339.843750	-51.779327
7340.820312	-52.103622
7341.796875	-51.044456
7342.773438	-50.847012
7343.750000	-51.208332
7344.726562	-51.974224
7345.703125	-52.207043
7346.679688	-51.620041
7347.656250	-51.338303
7348.632812	-51.918087
7349.609375	-51.126060
7350.585938	-50.999542
7351.562500	-51.657501
7352.539062	-51.237995
7353.515625	-50.406895
7354.492188	-52.096214
7355.468750	-52.516888
7356.445312	-50.534950
7357.421875	-51.031654
7358.398438	-51.889816
7359.375000	-51.404121
7360.351562	-51.259350
7361.328125	-53.536777
7362.304688	-51.543694
7363.281250	-51.105156
7364.257812	-51.543568
7365.234375	-51.248245
7366.210938	-51.713215
7367.187500	-51.817944
7368.164062	-52.804279
7369.140625	-51.783279
7370.117188	-51.913326
7371.093750	-50.527458
7372.070312	-50.140850
7373.046875	-51.384380
7374.023438	-52.162460
7375.000000	-50.645958
7375.976562	-52.031742
7376.953125	-52.827316
7377.929688	-51.730801
7378.906250	-52.179272
7379.882812	-50.882149
7380.859375	-52.307919
7381.835938	-51.546345
7382.812500	-51.999538
7383.789062	-52.378536
7384.765625	-50.873878
7385.742188	-51.453987
7386.718750	-50.562084
7387.695312	-51.654434
7388.671875	-51.583565
7389.648438	-51.022049
7390.625000	-51.134495
7391.601562	-51.307514
7392.578125	-51.577728
7393.554688	-50.715450
7394.531250	-51.707237
7395.507812	-51.328945
7396.484375	-50.913784
7397.460938	-51.295387
7398.437500	-52.641945
7399.414062	-51.503819
7400.390625	-51.350712
7401.367188	-51.457264
7402.343750	-51.195049
7403.320312	-52.070518
7404.296875	-52.545677
7405.273438	-52.809357
7406.250000	-51.932777
7407.226562	-51.394150
7408.203125	-51.553432
7409.179688	-52.212780
7410.156250	-51.440750
7411.132812	-52.726173
7412.109375	-52.323086
7413.085938	-50.570919
7414.062500	-51.222813
7415.039062	-52.364723
7416.015625	-52.469360
7416.992188	-51.680012
7417.968750	-52.231800
7418.945312	-52.272129
7419.921875	-49.993877
7420.898438	-51.623661
7421.875000	-52.996967
7422.851562	-52.839104
7423.828125	-52.944431
7424.804688	-52.097363
7425.781250	-50.434441
7426.757812	-51.967659
7427.734375	-50.589294
7428.710938	-51.407494
7429.687500	-51.955433
7430.664062	-51.731838
7431.640625	-52.139164
7432.617188	-52.474903
7433.593750	-52.600300
7434.570312	-51.668388
7435.546875	-51.444580
7436.523438	-51.339367
7437.500000	-50.166283
7438.476562	-52.173855
7439.453125	-52.711651
7440.429688	-51.200455
7441.406250	-51.349548
7442.382812	-52.207573
7443.359375	-52.580021
7444.335938	-52.481907
7445.312500	-51.369438
7446.289062	-51.240788
7447.265625	-51.668488
7448.242188	-51.425064
7449.218750	-52.036007
7450.195312	-51.597164
7451.171875	-52.972858
7452.148438	-51.953194
7453.125000	-52.723831
7454.101562	-52.124813
7455.078125	-51.369080
7456.054688	-52.606777
7457.031250	-51.928417
7458.007812	-51.324627
7458.984375	-51.896870
7459.960938	-51.582787
7460.937500	-51.004101
7461.914062	-51.950157
7462.890625	-52.162327
7463.867188	-51.089115
7464.843750	-52.442093
7465.820312	-52.508656
7466.796875	-50.648884
7467.773438	-51.233925
7468.750000	-52.205662
7469.726562	-52.330807
7470.703125	-52.133930
7471.679688	-50.262711
7472.656250	-49.902538
7473.632812	-52.332161
7474.609375	-52.222054
7475.585938	-51.665886
7476.562500	-51.505890
7477.539062	-51.180355
7478.515625	-51.915894
7479.492188	-50.512794
7480.468750	-52.720860
7481.445312	-52.448879
7482.421875	-52.302952
7483.398438	-51.466942
7484.375000	-53.558281
7485.351562	-50.324127
7486.328125	-51.232483
7487.304688	-51.383980
7488.281250	-52.243217
7489.257812	-53.473484
7490.234375	-52.398586
7491.210938	-50.792526
7492.187500	-51.162582
7493.164062	-51.992756
7494.140625	-52.028591
7495.117188	-52.604164
7496.093750	-52.652607
7497.070312	-51.303455
7498.046875	-51.664948
7499.023438	-52.752720
7500.000000	-51.475124
7500.976562	-52.271000
7501.953125	-52.245136
7502.929688	-50.697960
7503.906250	-51.381828
7504.882812	-52.187733
7505.859375	-51.402901
7506.835938	-52.658558
7507.812500	-52.338734
7508.789062	-52.186161
7509.765625	-51.444302
7510.742188	-52.742947
7511.718750	-52.752129
7512.695312	-52.170574
7513.671875	-52.736511
7514.648438	-51.814789
7515.625000	-51.767017
7516.601562	-51.971363
7517.578125	-51.465652
7518.554688	-52.890610
7519.531250	-52.359982
7520.507812	-53.096649
7521.484375	-53.728516
7522.460938	-52.255371
7523.437500	-52.332886
7524.414062	-51.055660
7525.390625	-53.600441
7526.367188	-52.305389
7527.343750	-51.698818
7528.320312	-52.783043
7529.296875	-52.095730
7530.273438	-51.537273
7531.250000	-53.096142
7532.226562	-52.698311
7533.203125	-52.348839
7534.179688	-53.272354
7535.156250	-52.432434
7536.132812	-52.122688
7537.109375	-51.340218
7538.085938	-52.489971
7539.062500	-52.836132
7540.039062	-52.716629
7541.015625	-53.755859
7541.992188	-52.411736
7542.968750	-52.869522
7543.945312	-52.811234
7544.921875	-53.229893
7545.898438	-54.103733
7546.875000	-52.018085
7547.851562	-52.847321
7548.828125	-51.576969
7549.804688	-52.219852
7550.781250	-52.444401
7551.757812	-53.039734
7552.734375	-53.153526
7553.710938	-52.472050
7554.687500	-53.102814
7555.664062	-52.618515
7556.640625	-52.328735
7557.617188	-52.925045
7558.593750	-53.462608
7559.570312	-52.948429
7560.546875	-52.771122
7561.523438	-54.143322
7562.500000	-53.280830
7563.476562	-52.904579
7564.453125	-54.466949
7565.429688	-53.780327
7566.406250	-53.186874
7567.382812	-53.716503
7568.359375	-54.025826
7569.335938	-53.109463
7570.312500	-54.580517
7571.289062	-53.024635
7572.265625	-53.066757
7573.242188	-54.290089
7574.218750	-52.429359
7575.195312	-53.439419
7576.171875	-53.888863
7577.148438	-53.428852
7578.125000	-53.685318
7579.101562	-54.262604
7580.078125	-53.074474
7581.054688	-54.597084
7582.031250	-55.290024
7583.007812	-53.405384
7583.984375	-54.292637
7584.960938	-53.990742
7585.937500	-52.595280
7586.914062	-54.128036
7587.890625	-53.273174
7588.867188	-53.840816
7589.843750	-53.556561
7590.820312	-55.329235
7591.796875	-54.271240
7592.773438	-54.424587
7593.750000	-55.090492
7594.726562	-54.989265
7595.703125	-54.096882
7596.679688	-54.898964
7597.656250	-54.638283
7598.632812	-53.916683
7599.609375	-53.824791
7600.585938	-54.768677
7601.562500	-56.066029
7602.539062	-54.939621
7603.515625	-54.128742
7604.492188	-55.295982
7605.468750	-55.473839
7606.445312	-55.764862
7607.421875	-55.089226
7608.398438	-56.131535
7609.375000	-56.116405
7610.351562	-55.937508
7611.328125	-55.526222
7612.304688	-54.939873
7613.281250	-55.369534
7614.257812	-54.234993
7615.234375	-55.604137
7616.210938	-55.758919
7617.187500	-55.172546
7618.164062	-55.457993
7619.140625	-56.267994
7620.117188	-56.971741
7621.093750	-55.757637
7622.070312	-55.925564
7623.046875	-56.286312
7624.023438	-55.462330
7625.000000	-55.801426
7625.976562	-57.769581
7626.953125	-55.886620
7627.929688	-56.639130
7628.906250	-56.202312
7629.882812	-56.254787
7630.859375	-57.660442
7631.835938	-56.905788
7632.812500	-55.724335
7633.789062	-56.339165
7634.765625	-56.203838
7635.742188	-58.030090
7636.718750	-57.467476
7637.695312	-57.556770
7638.671875	-57.692234
7639.648438	-56.938725
7640.625000	-56.582817
7641.601562	-57.811981
7642.578125	-57.133820
7643.554688	-58.621338
7644.531250	-57.528492
7645.507812	-57.380188
7646.484375	-58.449802
7647.460938	-58.001560
7648.437500	-57.850498
7649.414062	-57.308693
7650.390625	-59.888454
7651.367188	-58.553658
7652.343750	-56.383556
7653.320312	-58.848736
7654.296875	-58.548538
7655.273438	-58.305466
7656.250000	-58.032261
7657.226562	-58.656414
7658.203125	-59.562290
7659.179688	-59.121323
7660.156250	-59.185905
7661.132812	-57.964428
7662.109375	-59.224934
7663.085938	-58.568386
7664.062500	-59.144310
7665.039062	-59.493473
7666.015625	-60.507614
7666.992188	-59.711300
7667.968750	-60.270340
7668.945312	-58.451881
7669.921875	-58.760468
7670.898438	-59.728767
7671.875000	-60.072018
7672.851562	-60.919262
7673.828125	-59.912342
7674.804688	-59.007458
7675.781250	-60.368946
7676.757812	-60.718880
7677.734375	-62.652905
7678.710938	-61.891659
7679.687500	-61.435757
7680.664062	-60.578671
7681.640625	-60.575493
7682.617188	-61.138847
7683.593750	-61.280647
7684.570312	-62.600704
7685.546875	-62.392075
7686.523438	-62.244408
7687.500000	-61.442738
7688.476562	-61.848358
7689.453125	-62.341339
7690.429688	-62.456219
7691.406250	-63.303123
7692.382812	-62.123219
7693.359375	-61.411724
7694.335938	-62.334431
7695.312500	-62.773312
7696.289062	-62.720306
7697.265625	-63.728050
7698.242188	-63.639683
7699.218750	-62.856724
7700.195312	-63.673111
7701.171875	-62.467102
7702.148438	-63.175102
7703.125000	-64.242241
7704.101562	-63.573753
7705.078125	-64.278046
7706.054688	-64.863167
7707.031250	-63.801910
7708.007812	-64.129295
7708.984375	-65.055336
7709.960938	-64.763176
7710.937500	-64.884323
7711.914062	-64.740753
7712.890625	-65.393600
7713.867188	-64.021187
7714.843750	-65.161957
7715.820312	-64.902145
7716.796875	-66.591835
7717.773438	-65.593315
7718.750000	-66.075867
7719.726562	-65.325272
7720.703125	-67.054916
7721.679688	-66.678970
7722.656250	-66.292870
7723.632812	-67.459656
7724.609375	-67.394669
7725.585938	-68.371468
7726.562500	-67.470970
7727.539062	-67.213989
7728.515625	-67.793106
7729.492188	-67.311371
7730.468750	-67.419731
7731.445312	-68.327721
7732.421875	-68.464111
7733.398438	-67.846710
7734.375000	-68.201973
7735.351562	-67.957115
7736.328125	-69.526573
7737.304688	-68.185211
7738.281250	-69.311638
7739.257812	-69.674995
7740.234375	-68.774857
7741.210938	-69.067436
7742.187500	-69.360527
7743.164062	-70.890678
7744.140625	-69.954491
7745.117188	-71.396950
7746.093750	-70.320038
7747.070312	-71.018784
7748.046875	-71.437325
7749.023438	-73.089119
7750.000000	-70.611382
7750.976562	-70.894302
7751.953125	-71.801582
7752.929688	-71.656876
7753.906250	-72.115540
7754.882812	-72.808769
7755.859375	-72.635384
7756.835938	-71.900574
7757.812500	-73.668655
7758.789062	-73.468140
7759.765625	-74.027512
7760.742188	-73.653336
7761.718750	-73.996422
7762.695312	-73.965126
7763.671875	-75.384560
7764.648438	-73.709282
7765.625000	-74.020393
7766.601562	-74.495056
7767.578125	-75.012566
7768.554688	-74.820328
7769.531250	-75.787903
7770.507812	-76.227478
7771.484375	-75.245216
7772.460938	-76.118576
7773.437500	-75.850281
7774.414062	-76.334564
7775.390625	-75.720345
7776.367188	-75.876373
7777.343750	-77.393608
7778.320312	-77.114807
7779.296875	-77.541077
7780.273438	-76.915947
7781.250000	-76.308815
7782.226562	-77.630669
7783.203125	-78.226624
7784.179688	-78.142387
7785.156250	-78.295006
7786.132812	-79.179886
7787.109375	-79.388046
7788.085938	-79.118797
7789.062500	-79.883270
7790.039062	-79.972450
7791.015625	-79.403618
7791.992188	-79.049919
7792.968750	-79.465149
7793.945312	-80.065857
7794.921875	-79.893188
7795.898438	-80.852837
7796.875000	-81.548058
7797.851562	-80.746010
7798.828125	-79.943291
7799.804688	-80.595657
7800.781250	-81.814354
7801.757812	-81.765663
7802.734375	-81.720062
7803.710938	-81.985100
7804.687500	-81.804695
7805.664062	-82.718178
7806.640625	-82.619164
7807.617188	-82.685432
7808.593750	-83.229683
7809.570312	-81.927254
7810.546875	-83.398697
7811.523438	-83.922577
7812.500000	-82.992569
7813.476562	-82.938065
7814.453125	-83.592941
7815.429688	-83.500175
7816.406250	-84.594109
7817.382812	-84.188057
7818.359375	-84.465569
7819.335938	-84.430763
7820.312500	-84.263504
7821.289062	-84.941872
7822.265625	-85.051918
7823.242188	-85.818130
7824.218750	-85.172180
7825.195312	-83.645485
7826.171875	-85.053329
7827.148438	-85.442879
7828.125000	-85.741020
7829.101562	-85.330948
7830.078125	-85.657585
7831.054688	-85.456970
7832.031250	-85.084206
7833.007812	-86.210342
7833.984375	-86.047569
7834.960938	-86.115181
7835.937500	-86.351166
7836.914062	-86.422974
7837.890625	-86.508293
7838.867188	-86.188675
7839.843750	-86.480316
7840.820312	-86.748596
7841.796875	-86.429581
7842.773438	-86.539841
7843.750000	-86.895439
7844.726562	-86.572571
7845.703125	-85.964531
7846.679688	-86.327492
7847.656250	-86.673950
7848.632812	-87.080719
7849.609375	-86.615921
7850.585938	-87.084908
7851.562500	-86.398430
7852.539062	-87.119827
7853.515625	-86.833328
7854.492188	-86.823303
7855.468750	-86.987526
7856.445312	-86.766357
7857.421875	-86.882294
7858.398438	-87.291786
7859.375000	-87.107155
7860.351562	-86.908615
7861.328125	-86.925743
7862.304688	-87.243790
7863.281250	-87.000633
7864.257812	-87.385895
7865.234375	-87.078606
7866.210938	-87.081879
7867.187500	-87.318710
7868.164062	-87.051277
7869.140625	-87.257660
7870.117188	-87.203789
7871.093750	-87.382561
7872.070312	-87.266739
7873.046875	-87.245949
7874.023438	-87.288452
7875.000000	-87.164574
7875.976562	-87.372643
7876.953125	-87.384979
7877.929688	-87.204948
7878.906250	-87.408890
7879.882812	-87.193832
7880.859375	-87.322235
7881.835938	-87.307808
7882.812500	-87.307640
7883.789062	-87.334152
7884.765625	-87.313431
7885.742188	-87.293701
7886.718750	-87.407616
7887.695312	-87.441269
7888.671875	-87.358017
7889.648438	-87.427658
7890.625000	-87.381714
7891.601562	-87.429077
7892.578125	-87.356949
7893.554688	-87.452835
7894.531250	-87.450668
7895.507812	-87.423721
7896.484375	-87.404366
7897.460938	-87.465508
7898.437500	-87.439751
7899.414062	-87.483040
7900.390625	-87.440002
7901.367188	-87.481224
7902.343750	-87.478218
7903.320312	-87.471931
7904.296875	-87.473633
7905.273438	-87.458092
7906.250000	-87.490448
7907.226562	-87.504166
7908.203125	-87.491730
7909.179688	-87.497742
7910.156250	-87.503609
7911.132812	-87.508919
7912.109375	-87.510468
7913.085938	-87.516220
7914.062500	-87.513023
7915.039062	-87.533424
7916.015625	-87.528946
7916.992188	-87.535034
7917.968750	-87.535133
7918.945312	-87.529060
7919.921875	-87.527473
7920.898438	-87.543625
7921.875000	-87.546143
7922.851562	-87.547104
7923.828125	-87.550964
7924.804688	-87.555687
7925.781250	-87.559349
7926.757812	-87.555435
7927.734375	-87.568642
7928.710938	-87.567528
7929.687500	-87.572159
7930.664062	-87.577660
7931.640625	-87.578827
7932.617188	-87.582794
7933.593750	-87.588600
7934.570312	-87.589363
7935.546875	-87.591774
7936.523438	-87.594467
7937.500000	-87.598465
7938.476562	-87.596855
7939.453125	-87.603668
7940.429688	-87.603966
7941.406250	-87.607521
7942.382812	-87.607574
7943.359375	-87.613846
7944.335938	-87.615349
7945.312500	-87.618271
7946.289062	-87.620300
7947.265625	-87.622208
7948.242188	-87.623894
7949.218750	-87.625565
7950.195312	-87.627991
7951.171875	-87.629967
7952.148438	-87.632469
7953.125000	-87.634422
7954.101562	-87.635918
7955.078125	-87.638130
7956.054688	-87.640266
7957.031250	-87.641068
7958.007812	-87.643860
7958.984375	-87.645470
7959.960938	-87.647423
7960.937500	-87.648865
7961.914062	-87.650536
7962.890625	-87.651947
7963.867188	-87.653725
7964.843750	-87.655182
7965.820312	-87.656723
7966.796875	-87.658234
7967.773438	-87.659309
7968.750000	-87.660774
7969.726562	-87.662148
7970.703125	-87.663536
7971.679688	-87.664673
7972.656250	-87.665894
7973.632812	-87.667015
7974.609375	-87.668098
7975.585938	-87.669197
7976.562500	-87.670265
7977.539062	-87.671165
7978.515625	-87.672165
7979.492188	-87.673004
7980.468750	-87.673843
7981.445312	-87.674675
7982.421875	-87.675423
7983.398438	-87.676170
7984.375000	-87.676849
7985.351562	-87.677498
7986.328125	-87.678093
7987.304688	-87.678658
7988.281250	-87.679169
7989.257812	-87.679642
7990.234375	-87.680084
7991.210938	-87.680473
7992.187500	-87.680817
7993.164062	-87.681122
7994.140625	-87.681412
7995.117188	-87.681633
7996.093750	-87.681808
7997.070312	-87.681953
7998.046875	-87.682060
7999.023438	-87.682129
